timestamps,TP9,AF7,AF8,TP10,Right AUX,Marker0
37193.660,-20.020,-25.391,-31.250,-21.484,0.000,0
37193.664,-30.762,-25.391,-27.832,-30.762,0.000,0
37193.668,-27.832,-28.320,-28.809,-29.297,0.000,0
37193.672,-23.438,-30.273,-27.344,-22.949,0.000,0
37193.676,-29.785,-30.273,-23.438,-26.855,0.000,0
37193.680,-34.180,-26.855,-26.855,-21.484,0.000,0
37193.684,-34.180,-32.715,-29.297,-21.484,0.000,0
37193.687,-28.320,-37.109,-22.949,-25.879,0.000,0
37193.691,-29.297,-23.926,-18.555,-22.949,0.000,0
37193.695,-29.297,-24.414,-28.809,-31.250,0.000,0
37193.699,-27.344,-22.949,-25.879,-37.598,0.000,0
37193.703,-29.785,-22.949,-14.160,-33.203,0.000,0
37193.707,-35.156,-25.879,-23.438,-28.320,0.000,0
37193.711,-40.527,-29.785,-31.738,-39.551,0.000,0
37193.715,-37.598,-32.715,-35.156,-31.250,0.000,0
37193.719,-29.297,-26.855,-32.715,-8.301,0.000,0
37193.723,-24.902,-30.762,-30.273,-19.043,0.000,0
37193.726,-32.715,-35.645,-32.715,-41.992,0.000,0
37193.730,-36.133,-38.086,-32.715,-27.832,0.000,0
37193.734,-26.855,-32.227,-24.414,-13.672,0.000,0
37193.738,-26.855,-26.367,-27.344,-14.648,0.000,0
37193.742,-26.855,-28.809,-28.320,-13.672,0.000,0
37193.746,-20.020,-32.227,-20.996,-21.973,0.000,0
37193.750,-25.879,-29.785,-27.344,-31.738,0.000,0
37193.754,-26.855,-29.297,-35.156,-23.438,0.000,0
37193.758,-20.996,-27.344,-27.832,-10.254,0.000,0
37193.762,-28.809,-27.344,-21.973,-14.648,0.000,0
37193.766,-31.738,-29.785,-23.438,-22.461,0.000,0
37193.769,-28.320,-31.738,-31.738,-33.203,0.000,0
37193.773,-25.391,-28.809,-31.250,-28.809,0.000,0
37193.777,-18.066,-25.391,-18.066,-16.113,0.000,0
37193.781,-18.066,-29.297,-13.184,-16.113,0.000,0
37193.785,-17.090,-35.156,-19.531,-18.555,0.000,0
37193.789,-13.672,-31.738,-18.555,-19.531,0.000,0
37193.793,-21.484,-25.879,-17.578,-18.066,0.000,0
37193.797,-24.414,-27.832,-22.461,-18.555,0.000,0
37193.801,-19.043,-24.902,-22.461,-23.438,0.000,0
37193.805,-20.996,-27.344,-18.066,-23.438,0.000,0
37193.809,-20.996,-26.855,-16.602,-19.043,0.000,0
37193.812,-23.926,-31.738,-24.414,-30.273,0.000,0
37193.816,-25.391,-30.273,-32.715,-27.344,0.000,0
37193.820,-12.695,-17.578,-23.438,-1.465,0.000,0
37193.824,-4.883,-14.648,-16.602,13.184,0.000,0
37193.828,-18.066,-18.066,-28.809,-6.836,0.000,0
37193.832,-20.508,-20.020,-28.809,-22.461,0.000,0
37193.836,-20.996,-22.461,-25.879,-18.066,0.000,0
37193.840,-31.738,-27.832,-24.902,-24.414,0.000,0
37193.844,-28.809,-26.855,-23.438,-41.016,0.000,0
37193.848,-27.832,-29.785,-23.926,-37.598,0.000,0
37193.851,-33.691,-30.273,-15.625,-30.762,0.000,0
37193.855,-35.645,-25.879,-14.648,-26.855,0.000,0
37193.859,-37.598,-31.250,-18.066,-26.855,0.000,0
37193.863,-42.480,-40.527,-13.672,-37.598,0.000,0
37193.867,-38.086,-34.180,-15.137,-25.879,0.000,0
37193.871,-39.062,-22.949,-21.484,-21.484,0.000,0
37193.875,-28.809,-20.020,-23.438,-22.461,0.000,0
37193.879,-15.625,-31.250,-18.555,-4.395,0.000,0
37193.883,-31.738,-36.133,-13.672,-19.531,0.000,0
37193.887,-38.086,-28.809,-23.438,-39.551,0.000,0
37193.891,-29.297,-32.227,-30.762,-36.621,0.000,0
37193.894,-29.785,-35.156,-29.785,-30.273,0.000,0
37193.898,-26.367,-30.273,-23.438,-28.320,0.000,0
37193.902,-28.809,-32.715,-20.996,-36.621,0.000,0
37193.906,-38.086,-26.855,-28.320,-37.109,0.000,0
37193.910,-40.527,-22.949,-30.762,-30.273,0.000,0
37193.914,-32.715,-23.438,-24.414,-30.762,0.000,0
37193.918,-31.738,-30.762,-24.414,-36.621,0.000,0
37193.922,-30.762,-35.156,-29.297,-39.062,0.000,0
37193.926,-28.320,-31.250,-30.762,-37.598,0.000,0
37193.930,-30.273,-30.273,-20.508,-25.879,0.000,0
37193.934,-31.738,-29.297,-26.367,-22.461,0.000,0
37193.937,-32.715,-29.297,-36.621,-32.227,0.000,0
37193.941,-37.598,-37.109,-32.227,-39.551,0.000,0
37193.945,-41.016,-38.574,-37.109,-40.527,0.000,0
37193.949,-42.969,-43.945,-50.293,-39.551,0.000,0
37193.953,-41.504,-43.457,-44.434,-44.434,0.000,0
37193.957,-32.227,-34.668,-30.273,-38.574,0.000,0
37193.961,-29.785,-26.855,-23.926,-24.414,0.000,0
37193.965,-37.598,-28.809,-31.250,-34.180,0.000,0
37193.969,-41.992,-34.668,-39.551,-44.434,0.000,0
37193.973,-30.762,-26.367,-26.367,-31.738,0.000,0
37193.976,-24.902,-19.531,-20.996,-30.762,0.000,0
37193.980,-23.438,-23.926,-24.414,-37.598,0.000,0
37193.984,-22.461,-17.578,-20.508,-27.344,0.000,0
37193.988,-31.738,-21.973,-23.926,-27.832,0.000,0
37193.992,-38.574,-32.715,-30.762,-27.344,0.000,0
37193.996,-35.645,-29.297,-29.785,-26.367,0.000,0
37194.000,-31.738,-31.738,-23.926,-37.598,0.000,0
37194.004,-31.738,-29.785,-29.297,-36.621,0.000,0
37194.008,-32.227,-22.949,-39.062,-26.367,0.000,0
37194.012,-35.156,-27.832,-41.992,-24.414,0.000,0
37194.016,-32.227,-35.156,-39.062,-33.691,0.000,0
37194.019,-31.250,-28.320,-22.461,-39.551,0.000,0
37194.023,-28.809,-24.414,-24.902,-27.832,0.000,0
37194.027,-28.809,-22.949,-30.273,-20.020,0.000,0
37194.031,-25.879,-24.414,-24.414,-20.996,0.000,0
37194.035,-22.461,-26.367,-29.785,-16.602,0.000,0
37194.039,-21.484,-18.555,-28.809,-14.160,0.000,0
37194.043,-22.949,-23.438,-22.461,-23.926,0.000,0
37194.047,-24.414,-31.250,-22.461,-18.066,0.000,0
37194.051,-20.508,-21.973,-24.902,-18.555,0.000,0
37194.055,-23.438,-18.066,-22.949,-27.832,0.000,0
37194.059,-27.344,-22.949,-28.320,-29.785,0.000,0
37194.062,-29.297,-27.344,-33.691,-31.250,0.000,0
37194.066,-34.668,-27.832,-33.203,-35.645,0.000,0
37194.070,-32.715,-31.250,-34.180,-42.969,0.000,0
37194.074,-20.996,-32.715,-31.738,-28.320,0.000,0
37194.078,-18.555,-24.414,-24.902,-20.508,0.000,0
37194.082,-19.531,-20.996,-22.461,-29.297,0.000,0
37194.086,-17.090,-28.809,-31.250,-22.461,0.000,0
37194.090,-19.531,-30.762,-32.227,-19.531,0.000,0
37194.094,-15.625,-23.438,-21.973,-32.227,0.000,0
37194.098,-18.555,-26.855,-25.391,-41.016,0.000,0
37194.101,-23.438,-35.156,-31.738,-47.363,0.000,0
37194.105,-19.531,-27.344,-25.879,-42.480,0.000,0
37194.109,-18.555,-18.555,-18.066,-22.949,0.000,0
37194.113,-19.043,-23.926,-25.391,-11.719,0.000,0
37194.117,-20.996,-25.391,-24.414,-17.090,0.000,0
37194.121,-17.578,-23.926,-19.531,-22.949,0.000,0
37194.125,-17.090,-27.344,-20.508,-16.113,0.000,0
37194.129,-29.785,-27.344,-33.691,-23.926,0.000,0
37194.133,-28.320,-27.344,-36.133,-36.621,0.000,0
37194.137,-16.602,-26.855,-22.949,-28.320,0.000,0
37194.141,-12.695,-25.879,-25.879,-25.879,0.000,0
37194.144,-10.254,-25.879,-31.250,-26.367,0.000,0
37194.148,-13.184,-20.508,-26.367,-14.160,0.000,0
37194.152,-15.625,-20.020,-21.973,-10.254,0.000,0
37194.156,-18.555,-29.297,-17.090,-13.184,0.000,0
37194.160,-14.160,-25.391,-12.695,-8.789,0.000,0
37194.164,-20.508,-23.438,-14.648,-17.578,0.000,0
37194.168,-29.297,-24.414,-16.113,-18.066,0.000,0
37194.172,-17.090,-29.297,-20.020,-3.906,0.000,0
37194.176,-12.207,-32.715,-18.066,-9.277,0.000,0
37194.180,-18.066,-28.809,-13.184,-25.391,0.000,0
37194.184,-18.066,-24.902,-18.555,-20.996,0.000,0
37194.187,-12.695,-28.809,-19.043,-9.766,0.000,0
37194.191,-19.531,-30.762,-17.578,-10.254,0.000,0
37194.195,-29.785,-25.879,-15.137,-15.137,0.000,0
37194.199,-24.414,-25.391,-3.418,-11.230,0.000,0
37194.203,-20.020,-28.320,-11.719,-8.301,0.000,0
37194.207,-23.438,-30.762,-13.184,-15.625,0.000,0
37194.211,-19.531,-28.809,-11.719,-16.113,0.000,0
37194.215,-21.484,-29.785,-23.438,-19.043,0.000,0
37194.219,-29.297,-27.344,-21.484,-24.414,0.000,0
37194.223,-32.715,-24.902,-23.438,-19.043,0.000,0
37194.226,-34.180,-30.762,-26.855,-16.113,0.000,0
37194.230,-32.227,-34.180,-34.180,-17.578,0.000,0
37194.234,-30.762,-28.320,-34.668,-19.531,0.000,0
37194.238,-29.785,-25.879,-24.414,-20.508,0.000,0
37194.242,-29.785,-25.879,-22.949,-26.367,0.000,0
37194.246,-28.809,-20.996,-20.996,-35.645,0.000,0
37194.250,-22.461,-19.531,-19.531,-24.902,0.000,0
37194.254,-23.438,-24.414,-24.902,-22.949,0.000,0
37194.258,-31.250,-23.438,-15.137,-24.414,0.000,0
37194.262,-30.762,-17.578,-14.160,-14.648,0.000,0
37194.266,-29.297,-20.020,-19.531,-21.484,0.000,0
37194.269,-36.621,-27.832,-17.090,-37.109,0.000,0
37194.273,-32.227,-29.297,-19.043,-34.180,0.000,0
37194.277,-24.902,-27.832,-22.949,-40.527,0.000,0
37194.281,-34.668,-28.320,-30.762,-43.457,0.000,0
37194.285,-35.645,-28.809,-36.133,-39.551,0.000,0
37194.289,-31.738,-26.855,-32.227,-27.832,0.000,0
37194.293,-34.180,-30.762,-30.273,-20.020,0.000,0
37194.297,-37.109,-36.621,-28.320,-35.156,0.000,0
37194.301,-35.645,-31.738,-23.926,-21.484,0.000,0
37194.305,-38.086,-29.785,-28.809,-6.836,0.000,0
37194.309,-36.133,-33.203,-36.133,-24.414,0.000,0
37194.312,-29.297,-34.180,-35.645,-34.180,0.000,0
37194.316,-41.016,-38.086,-30.762,-44.922,0.000,0
37194.320,-45.898,-36.621,-31.738,-50.293,0.000,0
37194.324,-29.297,-30.273,-31.250,-34.180,0.000,0
37194.328,-20.996,-30.762,-26.855,-27.832,0.000,0
37194.332,-27.344,-27.344,-29.297,-20.020,0.000,0
37194.336,-26.367,-26.855,-30.762,-18.066,0.000,0
37194.340,-14.648,-25.391,-30.762,-13.184,0.000,0
37194.344,-19.043,-27.344,-28.809,-14.160,0.000,0
37194.348,-25.391,-26.855,-21.973,-18.066,0.000,0
37194.351,-19.531,-23.926,-20.508,-16.113,0.000,0
37194.355,-13.184,-23.438,-15.137,-19.043,0.000,0
37194.359,-20.508,-22.949,-14.160,-15.137,0.000,0
37194.363,-26.367,-24.414,-21.484,-10.742,0.000,0
37194.367,-22.949,-26.367,-25.391,-4.883,0.000,0
37194.371,-23.926,-26.855,-25.391,-10.742,0.000,0
37194.375,-29.785,-26.855,-18.555,-22.949,0.000,0
37194.379,-28.809,-35.645,-20.996,-23.438,0.000,0
37194.383,-26.855,-37.109,-20.020,-18.555,0.000,0
37194.387,-23.926,-27.832,-16.602,-15.137,0.000,0
37194.391,-18.555,-25.879,-9.766,-3.418,0.000,0
37194.394,-17.578,-24.414,-10.742,-5.859,0.000,0
37194.398,-24.414,-26.855,-27.344,-27.344,0.000,0
37194.402,-22.461,-29.785,-21.484,-20.996,0.000,0
37194.406,-20.020,-29.297,-20.508,-14.648,0.000,0
37194.410,-22.949,-29.785,-26.855,-21.973,0.000,0
37194.414,-22.949,-31.738,-21.484,-33.691,0.000,0
37194.418,-23.926,-27.832,-12.695,-33.203,0.000,0
37194.422,-24.414,-31.250,-16.602,-26.855,0.000,0
37194.426,-19.531,-33.203,-18.555,-20.508,0.000,0
37194.430,-20.996,-31.738,-20.020,-18.066,0.000,0
37194.434,-32.715,-32.227,-23.926,-34.668,0.000,0
37194.437,-24.414,-25.391,-22.949,-30.762,0.000,0
37194.441,-21.973,-29.785,-29.785,-22.949,0.000,0
37194.445,-27.832,-31.250,-24.902,-31.250,0.000,0
37194.449,-23.438,-28.320,-24.902,-27.344,0.000,0
37194.453,-22.949,-31.738,-31.250,-28.320,0.000,0
37194.457,-25.391,-38.086,-31.250,-29.785,0.000,0
37194.461,-24.902,-37.109,-26.855,-30.273,0.000,0
37194.465,-32.715,-31.250,-29.785,-29.785,0.000,0
37194.469,-29.297,-34.668,-29.297,-19.531,0.000,0
37194.473,-26.855,-32.715,-20.996,-16.602,0.000,0
37194.476,-34.668,-34.668,-22.949,-3.418,0.000,0
37194.480,-34.668,-36.133,-31.250,0.977,0.000,0
37194.484,-32.715,-33.203,-35.645,-23.438,0.000,0
37194.488,-22.949,-34.668,-36.133,-22.461,0.000,0
37194.492,-19.043,-38.086,-31.738,-20.508,0.000,0
37194.496,-17.578,-37.109,-27.344,-23.926,0.000,0
37194.500,-12.695,-31.738,-25.879,-20.020,0.000,0
37194.504,-14.648,-38.574,-28.320,-21.973,0.000,0
37194.508,-13.672,-39.551,-23.926,-14.648,0.000,0
37194.512,-5.371,-29.297,-12.207,-9.766,0.000,0
37194.516,-8.789,-29.297,-17.090,-19.531,0.000,0
37194.519,-20.020,-28.809,-23.438,-20.996,0.000,0
37194.523,-12.207,-24.414,-13.672,-15.137,0.000,0
37194.527,-4.395,-20.508,-8.789,-10.254,0.000,0
37194.531,-3.906,-30.273,-13.672,-5.371,0.000,0
37194.535,-8.301,-34.180,-14.648,-8.301,0.000,0
37194.539,-12.695,-20.996,-15.137,-11.230,0.000,0
37194.543,0.488,-18.555,-20.996,1.953,0.000,0
37194.547,8.789,-22.461,-24.902,6.348,0.000,0
37194.551,-1.465,-26.855,-21.484,-10.254,0.000,0
37194.555,-4.395,-21.484,-17.578,-11.230,0.000,0
37194.559,-1.465,-14.648,-16.602,0.977,0.000,0
37194.562,-3.906,-12.207,-16.602,-4.395,0.000,0
37194.566,-4.883,-9.277,-16.602,-6.348,0.000,0
37194.570,-17.090,-15.137,-10.742,-7.324,0.000,0
37194.574,-27.832,-26.855,-14.160,-20.020,0.000,0
37194.578,-28.809,-31.250,-31.738,-15.625,0.000,0
37194.582,-34.180,-33.691,-37.109,-17.090,0.000,0
37194.586,-31.250,-30.273,-33.691,-27.344,0.000,0
37194.590,-18.555,-21.484,-20.508,-27.344,0.000,0
37194.594,-17.578,-21.484,-15.137,-23.438,0.000,0
37194.598,-22.949,-21.973,-22.461,-15.625,0.000,0
37194.601,-24.414,-25.391,-29.297,-13.672,0.000,0
37194.605,-19.043,-27.832,-30.762,-7.812,0.000,0
37194.609,-18.555,-32.715,-33.203,-19.043,0.000,0
37194.613,-27.344,-32.715,-31.738,-29.785,0.000,0
37194.617,-22.949,-32.227,-34.180,-21.973,0.000,0
37194.621,-21.973,-34.668,-41.504,-28.809,0.000,0
37194.625,-26.367,-32.227,-42.969,-34.668,0.000,0
37194.629,-18.555,-26.855,-32.715,-25.391,0.000,0
37194.633,-19.531,-26.367,-26.855,-16.602,0.000,0
37194.637,-26.367,-30.762,-37.598,-16.113,0.000,0
37194.641,-21.973,-31.738,-24.902,-23.926,0.000,0
37194.644,-23.438,-26.367,-16.602,-19.531,0.000,0
37194.648,-35.645,-25.879,-25.391,-24.414,0.000,0
37194.652,-40.039,-28.320,-21.973,-31.738,0.000,0
37194.656,-34.668,-23.926,-19.043,-20.020,0.000,0
37194.660,-28.809,-24.902,-19.043,-19.531,0.000,0
37194.664,-32.715,-27.344,-20.020,-25.391,0.000,0
37194.668,-40.527,-27.832,-31.250,-27.344,0.000,0
37194.672,-34.180,-30.273,-30.762,-19.531,0.000,0
37194.676,-31.738,-26.855,-14.648,-14.160,0.000,0
37194.680,-37.598,-23.438,-12.207,-19.531,0.000,0
37194.684,-42.480,-30.762,-26.367,-36.133,0.000,0
37194.687,-33.691,-24.414,-18.555,-34.668,0.000,0
37194.691,-24.414,-25.879,-20.996,-30.273,0.000,0
37194.695,-29.785,-34.668,-32.227,-39.062,0.000,0
37194.699,-33.691,-29.785,-20.020,-43.457,0.000,0
37194.703,-33.203,-24.902,-14.160,-38.086,0.000,0
37194.707,-41.504,-29.785,-28.809,-31.250,0.000,0
37194.711,-43.457,-28.320,-34.180,-36.133,0.000,0
37194.715,-30.273,-22.461,-31.250,-14.160,0.000,0
37194.719,-30.273,-26.367,-34.180,-7.324,0.000,0
37194.723,-38.086,-27.344,-34.668,-42.480,0.000,0
37194.726,-31.250,-25.391,-33.691,-49.805,0.000,0
37194.730,-24.902,-24.902,-29.297,-48.828,0.000,0
37194.734,-24.414,-24.414,-23.438,-44.922,0.000,0
37194.738,-30.762,-25.391,-23.926,-33.203,0.000,0
37194.742,-33.691,-27.832,-17.090,-34.668,0.000,0
37194.746,-37.109,-21.484,-18.066,-38.574,0.000,0
37194.750,-35.156,-18.066,-27.344,-38.574,0.000,0
37194.754,-23.438,-22.461,-24.902,-30.762,0.000,0
37194.758,-26.855,-22.949,-28.809,-26.855,0.000,0
37194.762,-32.227,-28.320,-28.809,-34.180,0.000,0
37194.766,-30.762,-27.344,-18.555,-19.531,0.000,0
37194.769,-28.320,-25.879,-11.719,-15.137,0.000,0
37194.773,-29.297,-32.227,-25.391,-39.062,0.000,0
37194.777,-29.297,-30.273,-34.180,-40.039,0.000,0
37194.781,-29.297,-23.926,-33.203,-30.273,0.000,0
37194.785,-21.484,-21.973,-30.762,-26.367,0.000,0
37194.789,-15.137,-24.414,-22.949,-25.879,0.000,0
37194.793,-17.578,-21.484,-23.926,-26.367,0.000,0
37194.797,-22.949,-30.273,-35.645,-29.297,0.000,0
37194.801,-23.438,-27.344,-32.715,-27.344,0.000,0
37194.805,-20.508,-15.625,-22.949,-19.531,0.000,0
37194.809,-21.973,-20.996,-22.461,-24.902,0.000,0
37194.812,-16.602,-20.996,-23.926,-28.320,0.000,0
37194.816,-20.508,-22.461,-29.785,-28.320,0.000,0
37194.820,-29.785,-28.320,-29.785,-38.086,0.000,0
37194.824,-25.879,-28.320,-22.461,-32.227,0.000,0
37194.828,-31.250,-27.832,-20.996,-35.156,0.000,0
37194.832,-32.715,-22.461,-23.438,-38.086,0.000,0
37194.836,-27.344,-26.855,-36.621,-40.039,0.000,0
37194.840,-31.738,-30.762,-38.574,-39.062,0.000,0
37194.844,-28.809,-27.832,-23.438,-32.227,0.000,0
37194.848,-23.438,-30.273,-24.902,-31.250,0.000,0
37194.851,-20.020,-32.227,-34.668,-18.066,0.000,0
37194.855,-19.043,-28.809,-27.344,-19.531,0.000,0
37194.859,-26.855,-29.297,-22.461,-28.320,0.000,0
37194.863,-31.738,-34.668,-33.691,-30.273,0.000,0
37194.867,-24.902,-32.227,-29.297,-30.273,0.000,0
37194.871,-23.926,-32.227,-26.367,-35.156,0.000,0
37194.875,-39.551,-33.691,-38.574,-41.992,0.000,0
37194.879,-34.668,-28.320,-32.227,-36.621,0.000,0
37194.883,-27.344,-26.367,-26.855,-17.090,0.000,0
37194.887,-30.762,-31.738,-28.320,-20.020,0.000,0
37194.891,-21.973,-29.785,-21.973,-21.973,0.000,0
37194.894,-26.855,-29.785,-29.297,-14.648,0.000,0
37194.898,-37.109,-35.645,-37.109,-30.762,0.000,0
37194.902,-25.879,-25.391,-22.461,-24.902,0.000,0
37194.906,-12.695,-23.438,-7.812,-11.230,0.000,0
37194.910,-15.625,-34.668,-11.230,-22.461,0.000,0
37194.914,-21.484,-24.414,-15.625,-21.973,0.000,0
37194.918,-23.438,-23.926,-20.508,-13.672,0.000,0
37194.922,-32.227,-32.715,-38.086,-20.508,0.000,0
37194.926,-38.086,-36.621,-38.574,-37.598,0.000,0
37194.930,-32.715,-31.738,-20.996,-18.555,0.000,0
37194.934,-20.508,-27.832,-14.160,0.977,0.000,0
37194.937,-17.090,-34.180,-17.090,-20.996,0.000,0
37194.941,-24.414,-29.785,-29.297,-27.344,0.000,0
37194.945,-26.367,-24.902,-28.320,-25.391,0.000,0
37194.949,-22.461,-24.414,-20.508,-27.832,0.000,0
37194.953,-24.902,-22.461,-28.809,-25.391,0.000,0
37194.957,-25.879,-23.926,-36.621,-26.855,0.000,0
37194.961,-23.438,-30.273,-34.180,-9.766,0.000,0
37194.965,-23.438,-33.691,-24.902,-11.719,0.000,0
37194.969,-22.949,-33.203,-23.438,-18.066,0.000,0
37194.973,-17.578,-28.809,-24.902,-4.395,0.000,0
37194.976,-17.090,-23.438,-24.902,-20.508,0.000,0
37194.980,-28.320,-27.832,-30.762,-32.227,0.000,0
37194.984,-30.762,-34.668,-33.203,-24.902,0.000,0
37194.988,-27.344,-33.691,-30.762,-24.414,0.000,0
37194.992,-30.762,-27.832,-30.762,-32.715,0.000,0
37194.996,-33.691,-35.156,-40.527,-33.691,0.000,0
37195.000,-34.180,-40.039,-56.641,-27.344,0.000,0
37195.004,-28.809,-28.809,-42.480,-26.367,0.000,0
37195.008,-25.879,-22.949,-20.020,-23.438,0.000,0
37195.012,-26.367,-30.273,-31.250,-16.602,0.000,0
37195.016,-29.785,-35.645,-38.574,-29.297,0.000,0
37195.019,-27.344,-28.809,-27.344,-38.086,0.000,0
37195.023,-19.531,-27.832,-20.020,-28.320,0.000,0
37195.027,-19.531,-34.180,-21.484,-35.645,0.000,0
37195.031,-23.926,-35.156,-31.738,-30.273,0.000,0
37195.035,-24.902,-33.203,-31.738,-11.230,0.000,0
37195.039,-27.832,-30.762,-23.926,-20.508,0.000,0
37195.043,-36.621,-32.227,-26.367,-32.227,0.000,0
37195.047,-35.156,-28.809,-22.461,-41.992,0.000,0
37195.051,-30.273,-22.949,-13.672,-41.992,0.000,0
37195.055,-35.156,-24.414,-16.602,-32.227,0.000,0
37195.059,-38.574,-23.926,-33.691,-22.461,0.000,0
37195.062,-33.203,-28.809,-34.668,-21.973,0.000,0
37195.066,-20.508,-28.809,-13.672,-29.297,0.000,0
37195.070,-20.996,-26.855,-13.672,-20.508,0.000,0
37195.074,-37.109,-37.598,-33.203,-21.484,0.000,0
37195.078,-37.598,-33.203,-26.367,-35.156,0.000,0
37195.082,-34.668,-28.809,-8.301,-31.250,0.000,0
37195.086,-27.832,-32.715,-13.672,-22.949,0.000,0
37195.090,-24.902,-27.344,-20.508,-21.973,0.000,0
37195.094,-29.297,-26.367,-23.438,-17.578,0.000,0
37195.098,-25.391,-22.461,-22.949,-12.695,0.000,0
37195.101,-26.367,-21.973,-20.508,-17.090,0.000,0
37195.105,-25.879,-28.809,-22.461,-20.996,0.000,0
37195.109,-25.391,-27.832,-25.391,-12.207,0.000,0
37195.113,-20.508,-25.879,-27.344,-7.812,0.000,0
37195.117,-20.996,-31.250,-34.180,-15.625,0.000,0
37195.121,-26.855,-29.785,-34.668,-24.902,0.000,0
37195.125,-27.344,-26.855,-23.438,-22.461,0.000,0
37195.129,-28.320,-27.344,-21.484,-23.926,0.000,0
37195.133,-33.691,-25.879,-20.508,-24.414,0.000,0
37195.137,-37.598,-33.691,-27.832,-23.926,0.000,0
37195.141,-36.621,-36.133,-31.738,-23.926,0.000,0
37195.144,-28.809,-29.785,-16.113,-15.625,0.000,0
37195.148,-26.367,-31.250,-21.484,-23.438,0.000,0
37195.152,-33.691,-24.414,-30.273,-32.227,0.000,0
37195.156,-33.203,-24.902,-29.785,-32.715,0.000,0
37195.160,-26.367,-22.949,-25.391,-23.926,0.000,0
37195.164,-27.344,-17.578,-21.973,-23.926,0.000,0
37195.168,-25.879,-29.297,-23.926,-31.738,0.000,0
37195.172,-25.879,-32.715,-24.902,-29.297,0.000,0
37195.176,-26.367,-31.250,-23.926,-29.785,0.000,0
37195.180,-26.855,-31.250,-23.438,-34.180,0.000,0
37195.184,-29.785,-22.461,-16.602,-30.273,0.000,0
37195.187,-31.738,-19.043,-8.301,-19.531,0.000,0
37195.191,-25.879,-23.926,-18.555,-24.902,0.000,0
37195.195,-19.043,-28.320,-21.484,-25.391,0.000,0
37195.199,-27.344,-28.320,-12.695,-22.461,0.000,0
37195.203,-22.949,-27.344,-7.812,-33.203,0.000,0
37195.207,-19.043,-27.832,-9.277,-33.203,0.000,0
37195.211,-21.973,-26.855,-14.160,-21.973,0.000,0
37195.215,-26.367,-27.344,-13.672,-22.461,0.000,0
37195.219,-21.484,-21.973,-11.230,-31.738,0.000,0
37195.223,-16.602,-23.926,-15.625,-33.691,0.000,0
37195.226,-30.762,-30.762,-23.926,-40.527,0.000,0
37195.230,-39.551,-31.250,-25.391,-40.527,0.000,0
37195.234,-30.273,-26.855,-21.484,-30.762,0.000,0
37195.238,-23.926,-21.484,-31.250,-29.297,0.000,0
37195.242,-27.832,-25.879,-32.715,-37.598,0.000,0
37195.246,-30.762,-26.855,-27.344,-35.156,0.000,0
37195.250,-31.738,-26.367,-39.062,-31.738,0.000,0
37195.254,-35.645,-29.297,-47.363,-42.480,0.000,0
37195.258,-32.715,-25.879,-39.551,-29.297,0.000,0
37195.262,-23.438,-23.438,-25.879,-20.996,0.000,0
37195.266,-27.344,-26.855,-22.949,-35.645,0.000,0
37195.269,-28.809,-24.902,-25.391,-26.855,0.000,0
37195.273,-23.438,-21.973,-23.438,-18.066,0.000,0
37195.277,-29.297,-24.414,-18.066,-18.555,0.000,0
37195.281,-35.156,-23.438,-17.578,-34.668,0.000,0
37195.285,-32.227,-22.461,-25.391,-31.250,0.000,0
37195.289,-28.809,-15.625,-20.508,-15.625,0.000,0
37195.293,-25.391,-12.695,-20.020,-20.508,0.000,0
37195.297,-23.926,-15.137,-33.203,-19.531,0.000,0
37195.301,-24.414,-21.973,-30.273,-20.996,0.000,0
37195.305,-25.391,-28.320,-21.484,-20.020,0.000,0
37195.309,-38.086,-26.855,-30.273,-32.715,0.000,0
37195.312,-34.180,-27.344,-37.109,-44.434,0.000,0
37195.316,-22.461,-24.414,-34.180,-23.926,0.000,0
37195.320,-14.160,-22.461,-29.297,-14.648,0.000,0
37195.324,-14.648,-22.461,-24.902,-24.414,0.000,0
37195.328,-8.301,-27.344,-28.809,-20.508,0.000,0
37195.332,-2.930,-32.715,-27.344,-18.066,0.000,0
37195.336,-16.602,-29.297,-24.414,-21.484,0.000,0
37195.340,-28.809,-27.832,-24.902,-24.902,0.000,0
37195.344,-30.273,-26.367,-25.391,-30.762,0.000,0
37195.348,-31.738,-27.832,-27.344,-33.691,0.000,0
37195.351,-24.414,-32.715,-29.785,-27.344,0.000,0
37195.355,-26.367,-35.156,-34.668,-24.902,0.000,0
37195.359,-41.016,-33.691,-30.273,-33.203,0.000,0
37195.363,-35.645,-31.738,-26.367,-32.227,0.000,0
37195.367,-28.809,-29.785,-29.785,-31.738,0.000,0
37195.371,-32.227,-31.250,-29.785,-32.227,0.000,0
37195.375,-31.250,-36.133,-31.738,-25.391,0.000,0
37195.379,-19.531,-34.668,-21.973,-17.578,0.000,0
37195.383,-15.625,-30.273,-13.184,-23.438,0.000,0
37195.387,-33.203,-30.762,-22.461,-28.809,0.000,0
37195.391,-40.039,-33.203,-28.320,-28.809,0.000,0
37195.394,-32.227,-36.133,-28.809,-20.508,0.000,0
37195.398,-30.762,-36.621,-27.344,-3.418,0.000,0
37195.402,-31.738,-28.809,-20.996,-3.418,0.000,0
37195.406,-35.645,-26.855,-25.391,-27.832,0.000,0
37195.410,-36.621,-31.250,-29.785,-30.273,0.000,0
37195.414,-34.668,-27.832,-31.738,-26.367,0.000,0
37195.418,-39.551,-29.297,-38.574,-39.062,0.000,0
37195.422,-38.574,-33.691,-38.574,-38.574,0.000,0
37195.426,-34.668,-27.344,-30.273,-23.926,0.000,0
37195.430,-35.645,-28.320,-32.715,-28.809,0.000,0
37195.434,-23.438,-26.855,-36.133,-20.996,0.000,0
37195.437,-18.066,-19.043,-28.809,-8.789,0.000,0
37195.441,-23.438,-24.902,-31.250,-28.809,0.000,0
37195.445,-25.391,-31.738,-38.086,-37.598,0.000,0
37195.449,-19.531,-29.785,-36.621,-18.555,0.000,0
37195.453,-7.324,-24.902,-35.645,-9.766,0.000,0
37195.457,-24.414,-22.461,-31.738,-33.691,0.000,0
37195.461,-39.062,-22.461,-27.832,-40.039,0.000,0
37195.465,-29.785,-21.973,-32.227,-21.973,0.000,0
37195.469,-25.391,-21.484,-35.645,-21.484,0.000,0
37195.473,-28.320,-22.949,-33.203,-24.902,0.000,0
37195.476,-25.879,-25.391,-31.738,-24.414,0.000,0
37195.480,-20.996,-20.508,-24.414,-29.297,0.000,0
37195.484,-14.160,-24.902,-32.715,-23.438,0.000,0
37195.488,0.977,-24.902,-29.785,3.418,0.000,0
37195.492,-15.137,-14.648,-21.484,-9.277,0.000,0
37195.496,-46.875,-17.090,-20.020,-46.387,0.000,0
37195.500,-43.457,-20.020,-12.207,-36.621,0.000,0
37195.504,-37.598,-22.461,-18.066,-32.715,0.000,0
37195.508,-38.574,-23.438,-20.020,-34.180,0.000,0
37195.512,-37.109,-20.508,-24.414,-34.180,0.000,0
37195.516,-37.598,-22.461,-20.508,-38.574,0.000,0
37195.519,-37.109,-23.926,-17.578,-33.203,0.000,0
37195.523,-35.156,-24.902,-25.879,-28.320,0.000,0
37195.527,-31.250,-23.926,-26.367,-15.137,0.000,0
37195.531,-32.227,-21.973,-26.367,-7.324,0.000,0
37195.535,-35.156,-32.227,-28.320,-25.391,0.000,0
37195.539,-29.297,-35.156,-25.391,-36.133,0.000,0
37195.543,-30.762,-24.902,-29.785,-33.691,0.000,0
37195.547,-39.062,-28.320,-36.133,-36.133,0.000,0
37195.551,-36.133,-32.715,-38.574,-25.879,0.000,0
37195.555,-35.156,-32.227,-44.922,-20.020,0.000,0
37195.559,-31.738,-32.715,-35.645,-27.344,0.000,0
37195.562,-20.508,-28.320,-29.785,-8.789,0.000,0
37195.566,-19.531,-28.320,-36.621,-6.836,0.000,0
37195.570,-32.227,-31.738,-35.156,-29.297,0.000,0
37195.574,-32.715,-28.320,-31.250,-26.367,0.000,0
37195.578,-26.367,-29.785,-26.855,-24.414,0.000,0
37195.582,-31.250,-27.344,-27.344,-28.320,0.000,0
37195.586,-23.438,-22.949,-24.902,-22.461,0.000,0
37195.590,-14.648,-22.461,-22.949,-5.859,0.000,0
37195.594,-18.555,-20.508,-20.020,-6.836,0.000,0
37195.598,-16.602,-23.926,-15.137,-18.066,0.000,0
37195.601,-10.254,-22.461,-19.043,-1.953,0.000,0
37195.605,-12.695,-23.926,-20.996,3.418,0.000,0
37195.609,-20.996,-26.855,-26.855,-16.113,0.000,0
37195.613,-21.973,-29.785,-26.855,-26.855,0.000,0
37195.617,-15.625,-29.785,-19.043,-40.527,0.000,0
37195.621,-19.043,-23.438,-24.902,-35.645,0.000,0
37195.625,-26.855,-23.926,-29.297,-31.250,0.000,0
37195.629,-22.949,-22.949,-23.926,-25.391,0.000,0
37195.633,-17.578,-20.996,-19.531,-14.160,0.000,0
37195.637,-22.461,-25.879,-17.090,-21.484,0.000,0
37195.641,-22.949,-29.297,-18.066,-21.484,0.000,0
37195.644,-19.043,-34.180,-28.809,-20.996,0.000,0
37195.648,-31.738,-35.645,-35.156,-23.926,0.000,0
37195.652,-34.180,-24.414,-26.367,-23.438,0.000,0
37195.656,-21.484,-20.508,-23.438,-22.949,0.000,0
37195.660,-20.508,-20.020,-20.508,-11.719,0.000,0
37195.664,-31.738,-21.973,-22.949,-16.113,0.000,1
37195.668,-30.762,-26.855,-28.809,-30.273,0.000,0
37195.672,-22.949,-31.250,-26.367,-24.414,0.000,0
37195.676,-26.367,-27.344,-34.180,-30.273,0.000,0
37195.680,-29.785,-24.902,-37.598,-38.574,0.000,0
37195.684,-28.809,-22.461,-31.250,-27.832,0.000,0
37195.687,-35.645,-20.508,-28.809,-31.738,0.000,0
37195.691,-41.992,-27.344,-30.762,-37.109,0.000,0
37195.695,-34.180,-23.438,-25.391,-30.273,0.000,0
37195.699,-29.785,-21.973,-22.949,-22.461,0.000,0
37195.703,-30.273,-26.367,-30.273,-21.973,0.000,0
37195.707,-34.668,-21.484,-28.809,-32.227,0.000,0
37195.711,-37.109,-22.949,-22.949,-27.344,0.000,0
37195.715,-33.203,-25.879,-25.391,-31.738,0.000,0
37195.719,-39.062,-29.785,-32.227,-46.387,0.000,0
37195.723,-45.898,-37.109,-35.645,-43.457,0.000,0
37195.726,-33.203,-38.086,-32.715,-33.203,0.000,0
37195.730,-27.832,-27.832,-32.227,-39.062,0.000,0
37195.734,-36.133,-25.391,-34.180,-46.875,0.000,0
37195.738,-31.250,-27.344,-32.715,-38.086,0.000,0
37195.742,-31.738,-23.926,-32.227,-31.738,0.000,0
37195.746,-43.945,-28.809,-37.598,-40.039,0.000,0
37195.750,-40.039,-30.762,-34.668,-37.109,0.000,0
37195.754,-27.344,-27.832,-20.996,-24.902,0.000,0
37195.758,-28.809,-27.344,-16.602,-23.926,0.000,0
37195.762,-41.016,-26.855,-24.414,-40.039,0.000,0
37195.766,-38.574,-24.414,-27.344,-38.574,0.000,0
37195.769,-25.879,-22.949,-22.461,-15.625,0.000,0
37195.773,-24.902,-19.531,-12.695,-17.578,0.000,0
37195.777,-24.414,-14.160,-13.672,-15.137,0.000,0
37195.781,-31.738,-11.230,-17.090,-11.230,0.000,0
37195.785,-28.809,-19.043,-20.508,-16.113,0.000,0
37195.789,-21.484,-14.160,-19.531,-15.625,0.000,0
37195.793,-32.715,-9.766,-21.973,-24.902,0.000,0
37195.797,-28.320,-20.508,-25.879,-28.809,0.000,0
37195.801,-24.902,-20.020,-12.207,-26.855,0.000,0
37195.805,-33.691,-20.020,-17.090,-23.438,0.000,0
37195.809,-34.668,-26.855,-27.344,-14.648,0.000,0
37195.812,-31.250,-28.320,-23.438,-19.531,0.000,0
37195.816,-32.715,-24.902,-22.461,-23.926,0.000,0
37195.820,-31.738,-21.973,-24.414,-24.902,0.000,0
37195.824,-25.879,-19.043,-17.090,-29.297,0.000,0
37195.828,-25.879,-20.020,-10.742,-27.832,0.000,0
37195.832,-35.156,-23.926,-12.207,-32.715,0.000,0
37195.836,-41.016,-25.391,-16.113,-39.062,0.000,0
37195.840,-30.273,-23.926,-19.043,-24.902,0.000,0
37195.844,-28.809,-22.949,-21.484,-6.348,0.000,0
37195.848,-39.551,-20.020,-20.508,-5.371,0.000,0
37195.851,-43.945,-25.879,-25.879,-24.902,0.000,0
37195.855,-38.574,-31.738,-15.625,-29.785,0.000,0
37195.859,-40.527,-27.832,-10.742,-38.086,0.000,0
37195.863,-47.363,-28.320,-22.949,-42.480,0.000,0
37195.867,-38.086,-28.320,-26.855,-30.273,0.000,0
37195.871,-41.992,-30.762,-31.250,-29.785,0.000,0
37195.875,-48.828,-34.180,-24.414,-40.527,0.000,0
37195.879,-43.457,-26.855,-30.273,-35.645,0.000,0
37195.883,-40.527,-22.461,-36.621,-27.832,0.000,0
37195.887,-41.992,-24.414,-29.297,-30.762,0.000,0
37195.891,-35.156,-26.367,-18.066,-24.902,0.000,0
37195.894,-21.973,-26.855,-17.578,-22.461,0.000,0
37195.898,-24.902,-19.531,-36.133,-27.344,0.000,0
37195.902,-36.621,-21.973,-40.039,-30.762,0.000,0
37195.906,-30.762,-18.555,-29.297,-25.391,0.000,0
37195.910,-21.484,-13.672,-27.344,-30.762,0.000,0
37195.914,-29.785,-27.832,-33.691,-41.504,0.000,0
37195.918,-28.809,-31.738,-38.574,-33.691,0.000,0
37195.922,-29.785,-27.344,-45.410,-26.855,0.000,0
37195.926,-31.250,-30.762,-52.734,-27.832,0.000,0
37195.930,-20.996,-28.320,-50.293,-23.926,0.000,0
37195.934,-23.438,-28.320,-41.992,-31.738,0.000,0
37195.937,-24.414,-25.879,-43.457,-26.367,0.000,0
37195.941,-18.066,-26.855,-45.410,-24.902,0.000,0
37195.945,-20.996,-27.832,-40.527,-17.090,0.000,0
37195.949,-21.973,-23.438,-40.039,-19.531,0.000,0
37195.953,-18.555,-27.832,-34.180,-33.203,0.000,0
37195.957,-23.926,-27.344,-32.227,-14.648,0.000,0
37195.961,-24.414,-25.879,-35.645,-12.695,0.000,0
37195.965,-25.391,-28.809,-29.785,-28.809,0.000,0
37195.969,-27.832,-26.367,-24.902,-33.203,0.000,0
37195.973,-26.367,-20.020,-22.949,-34.180,0.000,0
37195.976,-28.320,-17.578,-20.020,-29.785,0.000,0
37195.980,-32.227,-19.531,-13.184,-33.203,0.000,0
37195.984,-35.645,-22.949,-22.461,-36.621,0.000,0
37195.988,-28.320,-20.508,-25.879,-28.320,0.000,0
37195.992,-18.066,-18.066,-12.695,-16.602,0.000,0
37195.996,-20.020,-15.137,-13.672,-20.996,0.000,0
37196.000,-23.438,-14.648,-22.949,-33.691,0.000,0
37196.004,-24.902,-21.484,-28.809,-35.156,0.000,0
37196.008,-26.367,-19.043,-24.902,-26.855,0.000,0
37196.012,-27.832,-20.020,-20.020,-29.785,0.000,0
37196.016,-27.832,-25.879,-18.066,-32.227,0.000,0
37196.019,-35.156,-28.809,-21.973,-24.414,0.000,0
37196.023,-38.086,-22.949,-22.461,-18.066,0.000,0
37196.027,-34.668,-20.508,-19.531,-21.973,0.000,0
37196.031,-33.691,-26.367,-20.020,-30.762,0.000,0
37196.035,-28.320,-29.297,-22.461,-38.574,0.000,0
37196.039,-21.973,-30.273,-23.926,-39.551,0.000,0
37196.043,-21.973,-34.668,-22.461,-35.156,0.000,0
37196.047,-13.672,-32.715,-29.785,-12.695,0.000,0
37196.051,-13.672,-29.297,-30.273,-10.254,0.000,0
37196.055,-18.555,-28.809,-24.414,-19.531,0.000,0
37196.059,-11.230,-22.461,-28.809,-5.371,0.000,0
37196.062,-11.719,-21.484,-30.273,-2.930,0.000,0
37196.066,-27.832,-22.949,-27.832,-11.719,0.000,0
37196.070,-22.949,-31.738,-31.738,-19.531,0.000,0
37196.074,-12.695,-28.320,-30.762,-19.043,0.000,0
37196.078,-20.020,-22.461,-28.809,-15.625,0.000,0
37196.082,-20.020,-25.391,-23.926,-1.953,0.000,0
37196.086,-3.906,-20.996,-17.090,0.000,0.000,0
37196.090,-4.883,-21.484,-20.020,-24.902,0.000,0
37196.094,-17.090,-26.855,-18.066,-24.414,0.000,0
37196.098,-12.207,-24.902,-14.648,-11.719,0.000,0
37196.101,-5.371,-19.043,-13.672,-7.324,0.000,0
37196.105,-4.395,-20.996,-15.137,-11.230,0.000,0
37196.109,-5.371,-22.949,-10.254,-21.484,0.000,0
37196.113,-5.859,-22.461,-6.348,-25.391,0.000,0
37196.117,-10.254,-19.531,-8.301,-14.160,0.000,0
37196.121,-16.602,-22.461,-19.043,-17.090,0.000,0
37196.125,-24.902,-32.715,-29.785,-32.715,0.000,0
37196.129,-25.391,-27.832,-17.090,-22.461,0.000,0
37196.133,-17.090,-18.066,-19.043,-13.184,0.000,0
37196.137,-17.090,-26.855,-33.691,-24.414,0.000,0
37196.141,-23.926,-31.738,-24.414,-25.391,0.000,0
37196.144,-16.602,-23.438,-11.230,-17.578,0.000,0
37196.148,-16.113,-24.414,-13.672,-34.668,0.000,0
37196.152,-24.902,-27.832,-20.020,-41.992,0.000,0
37196.156,-30.273,-26.855,-15.137,-41.016,0.000,0
37196.160,-31.738,-32.715,-17.090,-37.109,0.000,0
37196.164,-29.297,-36.621,-25.879,-36.621,0.000,0
37196.168,-29.297,-38.086,-27.344,-49.316,0.000,0
37196.172,-22.461,-32.227,-19.531,-32.715,0.000,0
37196.176,-14.160,-25.391,-16.113,-17.090,0.000,0
37196.180,-17.090,-29.297,-20.508,-24.902,0.000,0
37196.184,-17.090,-36.133,-21.484,-15.137,0.000,0
37196.187,-12.695,-33.203,-20.996,-11.230,0.000,0
37196.191,-15.137,-27.344,-19.531,-18.555,0.000,0
37196.195,-13.672,-26.855,-28.320,-12.695,0.000,0
37196.199,-21.484,-25.879,-33.691,-15.625,0.000,0
37196.203,-27.344,-26.367,-30.273,-17.578,0.000,0
37196.207,-21.484,-25.391,-16.602,-15.137,0.000,0
37196.211,-24.414,-21.484,-16.602,-29.297,0.000,0
37196.215,-21.973,-17.090,-23.438,-29.785,0.000,0
37196.219,-19.043,-19.531,-14.160,-20.020,0.000,0
37196.223,-22.461,-21.973,-24.414,-18.555,0.000,0
37196.226,-30.762,-21.484,-33.691,-26.855,0.000,0
37196.230,-30.762,-20.020,-23.438,-31.738,0.000,0
37196.234,-23.926,-21.973,-26.367,-28.320,0.000,0
37196.238,-30.273,-31.250,-33.203,-31.738,0.000,0
37196.242,-31.250,-26.367,-29.785,-35.156,0.000,0
37196.246,-28.809,-24.902,-20.996,-35.156,0.000,0
37196.250,-27.832,-23.438,-20.508,-28.809,0.000,0
37196.254,-32.715,-25.879,-37.598,-23.438,0.000,0
37196.258,-30.762,-27.832,-37.598,-23.926,0.000,0
37196.262,-24.902,-20.996,-26.855,-19.531,0.000,0
37196.266,-34.668,-27.832,-28.320,-37.109,0.000,0
37196.269,-34.668,-29.297,-31.738,-40.039,0.000,0
37196.273,-22.949,-24.414,-26.855,-15.137,0.000,0
37196.277,-22.461,-29.785,-29.785,-20.508,0.000,0
37196.281,-24.414,-25.391,-25.391,-30.762,0.000,0
37196.285,-23.926,-15.625,-19.531,-31.250,0.000,0
37196.289,-26.855,-17.578,-27.344,-34.668,0.000,0
37196.293,-20.508,-18.555,-25.879,-29.297,0.000,0
37196.297,-21.484,-23.926,-20.996,-28.320,0.000,0
37196.301,-33.691,-27.832,-20.020,-36.621,0.000,0
37196.305,-32.227,-23.438,-20.020,-37.109,0.000,0
37196.309,-27.832,-29.297,-19.043,-26.855,0.000,0
37196.312,-28.809,-29.297,-16.113,-18.555,0.000,0
37196.316,-23.926,-22.949,-20.020,-28.320,0.000,0
37196.320,-15.625,-25.391,-18.555,-25.879,0.000,0
37196.324,-16.602,-26.855,-20.996,-32.715,0.000,0
37196.328,-19.043,-27.832,-30.273,-42.480,0.000,0
37196.332,-21.484,-28.320,-26.855,-34.668,0.000,0
37196.336,-23.926,-19.531,-13.672,-24.414,0.000,0
37196.340,-31.250,-21.484,-19.531,-25.879,0.000,0
37196.344,-34.180,-30.762,-28.320,-29.297,0.000,1
37196.348,-24.902,-26.367,-21.484,-20.020,0.000,0
37196.351,-31.738,-19.531,-25.391,-22.949,0.000,0
37196.355,-34.668,-21.973,-26.855,-24.414,0.000,0
37196.359,-31.738,-27.832,-27.344,-24.414,0.000,0
37196.363,-32.715,-24.902,-30.273,-30.762,0.000,0
37196.367,-25.391,-18.555,-26.367,-31.250,0.000,0
37196.371,-25.879,-19.043,-23.438,-26.367,0.000,0
37196.375,-26.367,-18.066,-27.344,-25.879,0.000,0
37196.379,-17.090,-12.207,-25.391,-13.672,0.000,0
37196.383,-11.719,-12.207,-17.578,-14.648,0.000,0
37196.387,-18.066,-11.230,-13.184,-30.273,0.000,0
37196.391,-23.926,-13.184,-21.484,-22.949,0.000,0
37196.394,-25.879,-17.578,-24.414,-23.926,0.000,0
37196.398,-24.902,-17.578,-8.789,-21.973,0.000,0
37196.402,-24.414,-23.438,-17.578,-17.578,0.000,0
37196.406,-28.809,-31.738,-30.762,-33.691,0.000,0
37196.410,-24.414,-19.043,-21.973,-23.438,0.000,0
37196.414,-20.508,-9.277,-13.672,-13.672,0.000,0
37196.418,-17.578,-16.602,-22.461,-28.809,0.000,0
37196.422,-13.672,-20.996,-28.809,-24.414,0.000,0
37196.426,-16.113,-19.531,-20.020,-20.020,0.000,0
37196.430,-18.555,-27.832,-15.625,-24.414,0.000,0
37196.434,-17.090,-28.809,-16.602,-29.297,0.000,0
37196.437,-15.625,-29.785,-23.438,-29.297,0.000,0
37196.441,-15.625,-30.762,-24.414,-19.043,0.000,0
37196.445,-15.137,-25.391,-21.484,-19.531,0.000,0
37196.449,-10.254,-23.438,-17.578,-14.648,0.000,0
37196.453,-14.648,-22.949,-19.531,-10.742,0.000,0
37196.457,-16.113,-22.461,-11.719,-12.695,0.000,0
37196.461,-12.207,-16.113,-1.465,-13.672,0.000,0
37196.465,-19.531,-21.484,-12.207,-25.879,0.000,0
37196.469,-25.879,-30.273,-17.578,-28.809,0.000,0
37196.473,-27.344,-29.785,-14.160,-22.949,0.000,0
37196.476,-28.320,-27.344,-17.578,-17.578,0.000,0
37196.480,-35.156,-31.738,-22.949,-20.508,0.000,0
37196.484,-41.016,-35.156,-15.137,-23.926,0.000,0
37196.488,-47.363,-31.250,-18.066,-12.695,0.000,0
37196.492,-55.176,-31.738,-36.621,-17.578,0.000,0
37196.496,-52.246,-32.227,-39.551,-36.621,0.000,0
37196.500,-44.922,-30.762,-37.598,-36.133,0.000,0
37196.504,-31.250,-26.367,-22.461,-23.438,0.000,0
37196.508,-24.902,-21.973,-15.137,-18.066,0.000,0
37196.512,-25.879,-16.602,-24.902,-25.391,0.000,0
37196.516,-26.367,-17.578,-27.832,-18.066,0.000,0
37196.519,-24.902,-22.461,-28.809,-16.602,0.000,0
37196.523,-16.602,-16.602,-20.996,-20.508,0.000,0
37196.527,-13.184,-16.113,-20.508,-17.578,0.000,0
37196.531,-15.137,-16.113,-22.461,-13.672,0.000,0
37196.535,-13.672,-13.184,-20.508,-9.766,0.000,0
37196.539,-14.160,-17.090,-21.973,3.906,0.000,0
37196.543,-15.137,-21.484,-21.484,-0.977,0.000,0
37196.547,-14.160,-19.531,-22.949,-26.855,0.000,0
37196.551,-14.648,-15.137,-18.555,-20.508,0.000,0
37196.555,-16.113,-20.020,-22.461,-11.719,0.000,0
37196.559,-21.484,-28.809,-27.832,-23.438,0.000,0
37196.562,-22.461,-27.832,-18.555,-27.344,0.000,0
37196.566,-23.438,-27.344,-18.066,-23.926,0.000,0
37196.570,-20.508,-29.297,-25.879,-27.832,0.000,0
37196.574,-18.555,-27.832,-20.996,-27.832,0.000,0
37196.578,-19.043,-23.926,-20.020,-14.160,0.000,0
37196.582,-18.555,-26.855,-20.508,-17.090,0.000,0
37196.586,-28.320,-31.738,-24.902,-29.785,0.000,0
37196.590,-25.879,-27.344,-27.344,-21.484,0.000,0
37196.594,-20.020,-25.391,-23.438,-12.207,0.000,0
37196.598,-18.555,-22.461,-23.926,-10.742,0.000,0
37196.601,-16.602,-28.320,-26.367,-9.277,0.000,0
37196.605,-19.531,-31.250,-26.367,-19.043,0.000,0
37196.609,-18.555,-23.926,-22.461,-31.250,0.000,0
37196.613,-14.648,-21.484,-17.578,-22.461,0.000,0
37196.617,-9.766,-17.090,-20.508,-8.789,0.000,0
37196.621,0.000,-13.672,-16.602,-10.742,0.000,0
37196.625,-2.441,-17.578,-16.602,-13.184,0.000,0
37196.629,-13.184,-22.461,-31.250,-13.672,0.000,0
37196.633,-19.043,-19.531,-29.785,-10.742,0.000,0
37196.637,-16.602,-16.113,-21.973,-7.812,0.000,0
37196.641,-19.531,-23.926,-23.926,-17.578,0.000,0
37196.644,-25.391,-26.855,-25.879,-32.227,0.000,0
37196.648,-22.949,-21.484,-26.367,-23.926,0.000,0
37196.652,-15.625,-21.973,-25.879,-8.301,0.000,0
37196.656,-19.043,-26.367,-23.438,-12.695,0.000,0
37196.660,-19.531,-29.785,-23.926,-11.230,0.000,0
37196.664,-14.160,-24.414,-20.996,0.488,0.000,0
37196.668,-18.066,-19.531,-22.949,-11.230,0.000,0
37196.672,-21.973,-31.250,-35.156,-31.250,0.000,0
37196.676,-24.902,-33.691,-37.598,-32.227,0.000,0
37196.680,-22.949,-29.297,-30.273,-24.414,0.000,0
37196.684,-20.508,-26.367,-20.508,-22.461,0.000,0
37196.687,-15.625,-19.043,-16.602,-20.996,0.000,0
37196.691,-17.090,-19.531,-22.949,-16.113,0.000,0
37196.695,-14.648,-26.855,-29.297,-13.672,0.000,0
37196.699,-12.207,-30.273,-20.996,-20.996,0.000,0
37196.703,-23.926,-26.855,-11.230,-27.832,0.000,0
37196.707,-20.996,-27.832,-19.043,-24.902,0.000,0
37196.711,-15.625,-26.367,-20.508,-11.230,0.000,0
37196.715,-14.648,-20.020,-11.230,6.348,0.000,0
37196.719,-23.926,-20.508,-19.043,-12.207,0.000,0
37196.723,-27.344,-25.391,-22.461,-36.621,0.000,0
37196.726,-24.902,-25.879,-20.508,-33.691,0.000,0
37196.730,-29.785,-26.855,-32.227,-28.809,0.000,0
37196.734,-32.227,-32.227,-43.945,-35.156,0.000,0
37196.738,-28.320,-30.273,-41.016,-35.645,0.000,0
37196.742,-21.484,-24.414,-26.855,-22.949,0.000,0
37196.746,-17.578,-21.484,-20.996,-20.508,0.000,0
37196.750,-17.578,-22.461,-26.367,-23.926,0.000,0
37196.754,-15.625,-20.508,-23.438,-23.438,0.000,0
37196.758,-13.672,-20.508,-20.996,-19.043,0.000,0
37196.762,-14.648,-23.926,-18.555,-10.254,0.000,0
37196.766,-19.531,-26.367,-20.508,-10.254,0.000,0
37196.769,-22.461,-25.391,-21.973,-19.043,0.000,0
37196.773,-22.461,-26.367,-28.809,-20.020,0.000,0
37196.777,-15.625,-25.391,-36.133,-19.043,0.000,0
37196.781,-16.113,-23.438,-28.320,-27.344,0.000,0
37196.785,-33.691,-23.926,-29.297,-37.598,0.000,0
37196.789,-32.227,-22.461,-23.926,-29.785,0.000,0
37196.793,-19.531,-25.391,-22.461,-16.602,0.000,0
37196.797,-15.625,-22.949,-27.832,-14.648,0.000,0
37196.801,-13.184,-20.508,-13.672,-21.484,0.000,0
37196.805,-25.391,-27.344,-17.578,-29.785,0.000,0
37196.809,-30.762,-25.391,-37.109,-26.855,0.000,0
37196.812,-28.809,-26.367,-35.645,-27.344,0.000,0
37196.816,-32.227,-24.902,-20.996,-29.785,0.000,0
37196.820,-31.250,-17.578,-9.766,-30.762,0.000,0
37196.824,-38.086,-20.996,-19.531,-35.156,0.000,0
37196.828,-33.691,-23.438,-27.832,-26.855,0.000,0
37196.832,-23.438,-23.926,-22.461,-11.230,0.000,0
37196.836,-21.973,-21.484,-21.484,-12.207,0.000,0
37196.840,-20.996,-26.367,-22.461,-23.926,0.000,0
37196.844,-26.855,-27.832,-27.832,-25.879,0.000,0
37196.848,-30.273,-28.320,-37.109,-24.902,0.000,0
37196.851,-27.344,-28.320,-32.227,-33.203,0.000,0
37196.855,-20.020,-20.996,-25.879,-31.250,0.000,0
37196.859,-11.719,-12.207,-12.695,-15.625,0.000,0
37196.863,-18.555,-15.137,-13.672,-12.695,0.000,0
37196.867,-20.020,-26.855,-27.344,-18.555,0.000,0
37196.871,-20.508,-27.832,-29.785,-28.809,0.000,0
37196.875,-22.461,-24.902,-27.832,-28.320,0.000,0
37196.879,-17.090,-20.508,-11.719,-21.973,0.000,1
37196.883,-17.090,-16.113,-10.254,-25.391,0.000,0
37196.887,-13.672,-16.113,-20.020,-17.090,0.000,0
37196.891,-14.648,-15.625,-18.555,-10.254,0.000,0
37196.894,-19.043,-14.648,-22.461,-15.625,0.000,0
37196.898,-20.996,-22.461,-26.367,-20.508,0.000,0
37196.902,-20.508,-24.902,-21.973,-17.090,0.000,0
37196.906,-20.508,-20.996,-27.832,-8.789,0.000,0
37196.910,-19.531,-14.648,-31.250,2.930,0.000,0
37196.914,-17.578,-12.695,-29.785,1.953,0.000,0
37196.918,-23.926,-21.973,-31.738,-23.926,0.000,0
37196.922,-18.555,-18.066,-22.461,-27.832,0.000,0
37196.926,-13.184,-11.230,-9.766,-14.648,0.000,0
37196.930,-15.137,-18.066,-10.742,-18.066,0.000,0
37196.934,-12.207,-20.020,-13.672,-15.625,0.000,0
37196.937,-9.277,-19.531,-6.836,-21.484,0.000,0
37196.941,-8.301,-20.508,-8.789,-26.367,0.000,0
37196.945,-12.207,-26.855,-24.902,-21.484,0.000,0
37196.949,-20.020,-30.762,-27.344,-18.555,0.000,0
37196.953,-31.738,-30.762,-22.949,-17.090,0.000,0
37196.957,-33.203,-31.250,-24.414,-26.367,0.000,0
37196.961,-29.297,-34.668,-23.926,-28.809,0.000,0
37196.965,-33.203,-33.203,-27.344,-23.438,0.000,0
37196.969,-30.273,-22.949,-21.973,-26.855,0.000,0
37196.973,-19.043,-25.879,-21.973,-24.414,0.000,0
37196.976,-21.973,-25.879,-21.484,-28.320,0.000,0
37196.980,-30.273,-21.973,-13.184,-29.785,0.000,0
37196.984,-33.691,-23.438,-20.996,-20.020,0.000,0
37196.988,-29.297,-23.438,-22.461,-22.949,0.000,0
37196.992,-27.832,-27.344,-23.438,-28.320,0.000,0
37196.996,-28.809,-33.203,-22.461,-29.785,0.000,0
37197.000,-25.879,-23.926,-11.719,-29.297,0.000,0
37197.004,-21.973,-17.090,-17.578,-23.438,0.000,0
37197.008,-24.414,-17.578,-22.461,-18.555,0.000,0
37197.012,-24.902,-10.254,-17.578,-8.789,0.000,0
37197.016,-17.578,-8.301,-17.578,-6.836,0.000,0
37197.019,-11.719,-16.602,-20.508,-23.926,0.000,0
37197.023,-12.695,-19.043,-26.855,-25.879,0.000,0
37197.027,-9.766,-17.090,-22.949,-16.113,0.000,0
37197.031,-10.742,-22.949,-16.602,-18.066,0.000,0
37197.035,-20.508,-25.391,-17.578,-34.668,0.000,0
37197.039,-28.320,-24.902,-16.602,-41.016,0.000,0
37197.043,-21.973,-20.508,-10.742,-26.855,0.000,0
37197.047,-10.742,-11.230,-5.371,-6.836,0.000,0
37197.051,-7.324,-9.277,-9.277,3.418,0.000,0
37197.055,-4.883,-9.277,-8.301,3.906,0.000,0
37197.059,-4.883,-11.719,-9.766,-5.859,0.000,0
37197.062,-4.395,-9.766,-13.184,-10.254,0.000,0
37197.066,-14.160,-20.020,-22.461,-21.484,0.000,0
37197.070,-22.461,-24.902,-22.461,-21.484,0.000,0
37197.074,-28.809,-19.531,-15.625,-11.719,0.000,0
37197.078,-33.203,-22.949,-20.020,-17.578,0.000,0
37197.082,-29.785,-23.926,-21.973,-20.020,0.000,0
37197.086,-27.832,-22.949,-21.973,-22.949,0.000,0
37197.090,-23.926,-22.949,-18.555,-25.391,0.000,0
37197.094,-26.367,-24.414,-15.137,-28.809,0.000,0
37197.098,-25.391,-30.273,-10.254,-26.367,0.000,0
37197.101,-27.832,-28.809,-9.277,-27.832,0.000,0
37197.105,-25.879,-21.973,-6.836,-29.785,0.000,0
37197.109,-14.648,-20.996,-11.230,-20.508,0.000,0
37197.113,-14.160,-20.508,-12.695,-8.301,0.000,0
37197.117,-22.949,-21.973,-6.836,-12.207,0.000,0
37197.121,-24.902,-24.414,-14.160,-18.066,0.000,0
37197.125,-28.320,-25.391,-21.973,-18.066,0.000,0
37197.129,-26.855,-29.785,-16.602,-18.555,0.000,0
37197.133,-16.602,-23.926,-13.672,-14.160,0.000,0
37197.137,-18.066,-16.113,-11.719,-19.043,0.000,0
37197.141,-20.996,-18.555,-11.719,-17.090,0.000,0
37197.144,-20.996,-20.996,-13.184,-12.207,0.000,0
37197.148,-20.508,-20.996,-8.789,-14.160,0.000,0
37197.152,-20.020,-21.973,-8.789,-10.254,0.000,0
37197.156,-19.043,-29.785,-12.207,-18.066,0.000,0
37197.160,-21.484,-29.297,-14.648,-25.391,0.000,0
37197.164,-24.902,-20.020,-8.301,-20.996,0.000,0
37197.168,-21.484,-21.973,-6.836,-20.020,0.000,0
37197.172,-19.043,-23.926,-13.672,-20.996,0.000,0
37197.176,-25.879,-20.996,-10.254,-25.879,0.000,0
37197.180,-31.250,-19.531,-10.742,-29.297,0.000,0
37197.184,-29.785,-20.996,-20.020,-28.809,0.000,0
37197.187,-27.344,-20.020,-20.996,-22.461,0.000,0
37197.191,-28.320,-21.973,-22.949,-20.020,0.000,0
37197.195,-32.715,-24.414,-25.879,-27.344,0.000,0
37197.199,-37.109,-20.020,-24.414,-26.855,0.000,0
37197.203,-31.250,-23.926,-29.297,-28.320,0.000,0
37197.207,-21.484,-19.531,-25.879,-29.297,0.000,0
37197.211,-16.113,-17.090,-21.484,-14.160,0.000,0
37197.215,-24.902,-28.809,-34.668,-22.461,0.000,0
37197.219,-31.738,-32.227,-36.621,-32.715,0.000,0
37197.223,-27.832,-26.367,-26.855,-32.715,0.000,0
37197.226,-23.438,-23.438,-23.926,-32.715,0.000,0
37197.230,-19.043,-23.438,-20.020,-33.203,0.000,0
37197.234,-18.555,-21.484,-10.254,-30.273,0.000,0
37197.238,-22.461,-19.531,-16.602,-26.367,0.000,0
37197.242,-21.484,-20.508,-20.508,-24.902,0.000,0
37197.246,-24.414,-22.949,-28.320,-18.066,0.000,0
37197.250,-26.855,-22.461,-30.273,-12.207,0.000,0
37197.254,-17.090,-21.484,-16.113,-15.625,0.000,0
37197.258,-17.090,-19.531,-24.902,-18.066,0.000,0
37197.262,-23.438,-25.879,-34.668,-18.555,0.000,0
37197.266,-22.461,-25.391,-27.344,-27.344,0.000,0
37197.269,-17.578,-18.066,-18.555,-23.926,0.000,0
37197.273,-18.555,-24.902,-21.484,-22.949,0.000,0
37197.277,-25.879,-26.367,-24.902,-22.461,0.000,0
37197.281,-19.531,-21.973,-16.602,-22.461,0.000,0
37197.285,-14.160,-21.484,-20.996,-20.996,0.000,0
37197.289,-24.414,-21.484,-20.508,-17.090,0.000,0
37197.293,-26.367,-20.996,-12.207,-25.391,0.000,0
37197.297,-25.391,-17.578,-12.207,-23.438,0.000,0
37197.301,-25.391,-18.555,-15.625,-14.160,0.000,0
37197.305,-21.973,-21.484,-16.602,-10.254,0.000,0
37197.309,-21.484,-18.066,-12.207,-17.090,0.000,0
37197.312,-27.344,-21.484,-8.301,-28.809,0.000,0
37197.316,-31.738,-23.438,-7.812,-34.180,0.000,0
37197.320,-23.438,-26.367,-12.207,-31.738,0.000,0
37197.324,-17.090,-25.879,-20.508,-18.555,0.000,0
37197.328,-23.926,-19.531,-17.090,-16.602,0.000,0
37197.332,-24.902,-27.344,-13.672,-27.832,0.000,0
37197.336,-30.762,-32.715,-22.949,-27.344,0.000,0
37197.340,-30.273,-30.762,-24.414,-14.160,0.000,0
37197.344,-21.973,-26.367,-12.207,-18.555,0.000,0
37197.348,-21.973,-18.066,-15.625,-28.320,0.000,0
37197.351,-26.367,-21.484,-19.531,-14.160,0.000,0
37197.355,-24.902,-22.461,-16.602,-10.742,0.000,0
37197.359,-24.902,-24.414,-22.949,-25.879,0.000,0
37197.363,-23.926,-22.949,-27.344,-15.137,0.000,0
37197.367,-11.719,-17.090,-18.066,0.000,0.000,0
37197.371,-12.695,-16.602,-10.742,-3.418,0.000,0
37197.375,-16.602,-22.461,-14.648,-8.789,0.000,0
37197.379,-13.672,-28.809,-27.344,-14.648,0.000,0
37197.383,-23.926,-27.344,-32.715,-26.367,0.000,0
37197.387,-25.391,-23.438,-21.484,-18.066,0.000,0
37197.391,-23.438,-26.367,-21.973,-21.484,0.000,0
37197.394,-35.156,-28.320,-27.832,-36.621,0.000,0
37197.398,-35.156,-23.438,-28.809,-23.926,0.000,0
37197.402,-21.484,-21.973,-29.785,0.000,0.000,0
37197.406,-14.160,-20.508,-24.414,1.953,0.000,0
37197.410,-17.090,-17.578,-21.973,-13.672,0.000,0
37197.414,-21.484,-21.484,-21.484,-23.926,0.000,0
37197.418,-32.715,-29.297,-23.438,-33.691,0.000,0
37197.422,-35.156,-27.832,-23.926,-38.086,0.000,0
37197.426,-30.762,-22.949,-32.715,-24.414,0.000,0
37197.430,-34.668,-30.273,-34.180,-26.855,0.000,0
37197.434,-33.203,-35.156,-26.367,-29.785,0.000,0
37197.437,-29.297,-31.250,-34.668,-29.297,0.000,0
37197.441,-31.738,-25.391,-40.039,-28.320,0.000,0
37197.445,-28.320,-20.020,-31.738,-11.230,0.000,0
37197.449,-24.414,-19.043,-16.602,-16.602,0.000,0
37197.453,-30.762,-23.926,-20.020,-38.574,0.000,0
37197.457,-35.156,-31.738,-30.273,-41.016,0.000,0
37197.461,-24.414,-27.832,-18.555,-25.391,0.000,0
37197.465,-13.672,-20.508,-10.742,-17.578,0.000,0
37197.469,-13.672,-22.461,-8.301,-21.973,0.000,0
37197.473,-16.602,-22.949,-7.324,-14.160,0.000,2
37197.476,-23.926,-24.902,-16.113,-8.789,0.000,0
37197.480,-26.367,-31.250,-16.113,-24.414,0.000,0
37197.484,-15.625,-26.855,-15.625,-23.926,0.000,0
37197.488,-9.766,-22.461,-14.648,-11.719,0.000,0
37197.492,-12.695,-26.367,-6.348,-20.996,0.000,0
37197.496,-13.184,-35.645,-20.020,-31.738,0.000,0
37197.500,-20.020,-43.945,-28.809,-25.391,0.000,0
37197.504,-24.414,-37.598,-23.438,-26.855,0.000,0
37197.508,-23.438,-29.785,-15.625,-33.691,0.000,0
37197.512,-20.996,-25.391,-8.301,-32.227,0.000,0
37197.516,-11.719,-19.043,-12.695,-20.020,0.000,0
37197.519,-7.324,-16.602,-15.625,-17.578,0.000,0
37197.523,-18.066,-21.973,-19.043,-22.949,0.000,0
37197.527,-20.996,-25.879,-16.602,-24.414,0.000,0
37197.531,-19.531,-30.273,-27.344,-27.832,0.000,0
37197.535,-26.855,-28.809,-35.156,-32.715,0.000,0
37197.539,-23.926,-20.020,-21.484,-12.207,0.000,0
37197.543,-14.648,-19.531,-19.531,1.953,0.000,0
37197.547,-19.531,-22.949,-24.414,-22.461,0.000,0
37197.551,-19.043,-19.531,-10.742,-32.227,0.000,0
37197.555,-17.090,-11.719,-10.742,-19.531,0.000,0
37197.559,-26.855,-20.508,-30.762,-35.156,0.000,0
37197.562,-35.645,-26.855,-39.062,-38.086,0.000,0
37197.566,-38.086,-22.949,-35.156,-31.738,0.000,0
37197.570,-38.086,-22.461,-23.438,-36.621,0.000,0
37197.574,-33.203,-19.043,-21.973,-26.855,0.000,0
37197.578,-29.785,-13.672,-22.949,-11.719,0.000,0
37197.582,-22.949,-11.719,-9.277,-15.625,0.000,0
37197.586,-20.996,-16.602,-6.348,-35.156,0.000,0
37197.590,-18.066,-12.207,-13.672,-33.691,0.000,0
37197.594,-19.043,-2.441,-13.672,-23.438,0.000,0
37197.598,-25.391,-7.812,-13.184,-18.555,0.000,0
37197.601,-20.996,-9.766,-15.625,-6.348,0.000,0
37197.605,-19.043,-10.254,-14.160,-10.742,0.000,0
37197.609,-18.555,-11.719,-10.254,-27.344,0.000,0
37197.613,-20.020,-12.207,-17.578,-26.855,0.000,0
37197.617,-27.832,-21.484,-21.484,-26.855,0.000,0
37197.621,-29.297,-26.855,-21.973,-28.809,0.000,0
37197.625,-15.625,-21.484,-6.836,-24.414,0.000,0
37197.629,-18.066,-23.926,-14.160,-25.879,0.000,0
37197.633,-24.902,-23.926,-25.391,-26.855,0.000,0
37197.637,-20.020,-21.973,-13.184,-18.555,0.000,0
37197.641,-27.344,-21.484,-13.672,-21.973,0.000,0
37197.644,-24.902,-20.020,-14.160,-25.391,0.000,0
37197.648,-20.020,-22.461,-18.066,-12.207,0.000,0
37197.652,-24.414,-19.531,-20.508,-11.230,0.000,0
37197.656,-24.414,-23.926,-20.020,-22.949,0.000,0
37197.660,-22.949,-26.855,-16.113,-22.461,0.000,0
37197.664,-23.926,-24.902,-14.160,-18.066,0.000,0
37197.668,-20.020,-21.973,-15.625,-14.648,0.000,0
37197.672,-14.160,-25.391,-23.926,-16.113,0.000,0
37197.676,-13.184,-33.691,-30.273,-27.832,0.000,0
37197.680,-22.949,-36.621,-26.367,-32.715,0.000,0
37197.684,-23.438,-32.715,-16.113,-23.438,0.000,0
37197.687,-24.902,-30.762,-21.484,-26.855,0.000,0
37197.691,-20.020,-30.273,-21.484,-16.602,0.000,0
37197.695,-15.625,-25.391,-12.207,-2.930,0.000,0
37197.699,-20.020,-20.996,-9.766,-14.160,0.000,0
37197.703,-29.785,-27.832,-16.602,-28.809,0.000,0
37197.707,-36.621,-34.180,-27.832,-32.227,0.000,0
37197.711,-37.109,-35.156,-22.461,-20.996,0.000,0
37197.715,-37.109,-29.785,-12.695,-20.020,0.000,0
37197.719,-33.691,-27.832,-17.578,-29.785,0.000,0
37197.723,-25.391,-27.832,-18.555,-20.508,0.000,0
37197.726,-23.438,-26.855,-17.090,-13.184,0.000,0
37197.730,-39.062,-29.297,-25.879,-20.508,0.000,0
37197.734,-32.227,-27.832,-26.855,-21.484,0.000,0
37197.738,-21.484,-26.855,-22.461,-6.348,0.000,0
37197.742,-25.879,-26.367,-14.648,-7.324,0.000,0
37197.746,-32.715,-32.715,-17.578,-27.832,0.000,0
37197.750,-36.133,-33.203,-28.320,-31.738,0.000,0
37197.754,-36.133,-25.391,-24.414,-20.996,0.000,0
37197.758,-38.086,-19.043,-17.578,-19.043,0.000,0
37197.762,-41.504,-18.066,-23.438,-34.668,0.000,0
37197.766,-42.969,-28.809,-38.086,-42.480,0.000,0
37197.769,-42.480,-30.762,-37.598,-37.598,0.000,0
37197.773,-36.133,-19.043,-17.090,-30.762,0.000,0
37197.777,-34.180,-23.438,-30.762,-28.809,0.000,0
37197.781,-33.691,-24.414,-37.109,-28.809,0.000,0
37197.785,-30.273,-20.508,-31.250,-19.531,0.000,0
37197.789,-26.367,-18.066,-36.621,-6.348,0.000,0
37197.793,-25.391,-13.672,-31.738,-13.672,0.000,0
37197.797,-26.855,-22.461,-35.156,-26.367,0.000,0
37197.801,-31.738,-27.832,-30.273,-34.668,0.000,0
37197.805,-42.480,-23.926,-30.273,-45.410,0.000,0
37197.809,-38.086,-29.297,-40.039,-41.992,0.000,0
37197.812,-33.203,-33.203,-36.133,-32.715,0.000,0
37197.816,-34.180,-26.855,-22.461,-20.996,0.000,0
37197.820,-26.855,-28.320,-22.461,-23.926,0.000,0
37197.824,-21.484,-31.738,-30.273,-24.414,0.000,0
37197.828,-22.461,-23.438,-20.020,-12.695,0.000,0
37197.832,-21.484,-15.625,-14.160,-7.812,0.000,0
37197.836,-29.297,-20.020,-20.020,-13.672,0.000,0
37197.840,-36.133,-26.367,-20.508,-20.508,0.000,0
37197.844,-36.133,-24.414,-23.926,-29.297,0.000,0
37197.848,-35.645,-18.066,-25.391,-22.461,0.000,0
37197.851,-38.574,-23.438,-25.879,-19.043,0.000,0
37197.855,-38.086,-27.832,-31.738,-32.227,0.000,0
37197.859,-29.297,-15.137,-14.160,-31.738,0.000,0
37197.863,-23.438,-8.301,1.465,-24.902,0.000,0
37197.867,-21.973,-9.277,-14.160,-21.484,0.000,0
37197.871,-20.996,-8.301,-17.578,-20.996,0.000,0
37197.875,-19.043,-7.324,-12.207,-18.555,0.000,0
37197.879,-17.090,-14.160,-15.625,-25.391,0.000,0
37197.883,-20.508,-17.578,-21.484,-31.250,0.000,0
37197.887,-18.066,-7.812,-13.672,-14.160,0.000,0
37197.891,-14.160,-9.277,-8.789,-14.160,0.000,0
37197.894,-20.020,-13.184,-16.602,-24.902,0.000,0
37197.898,-24.902,-14.648,-12.695,-29.785,0.000,0
37197.902,-21.973,-19.531,-13.672,-34.180,0.000,0
37197.906,-16.113,-12.207,-9.766,-23.926,0.000,0
37197.910,-14.648,-10.254,-3.418,-20.508,0.000,0
37197.914,-13.184,-13.672,-13.672,-23.438,0.000,0
37197.918,-14.160,-18.066,-15.137,-19.531,0.000,0
37197.922,-16.602,-19.043,-8.789,-15.137,0.000,0
37197.926,-21.973,-12.695,-17.090,-21.484,0.000,0
37197.930,-25.879,-23.926,-24.414,-18.555,0.000,0
37197.934,-23.926,-19.531,-20.508,-4.883,0.000,0
37197.937,-25.879,-8.301,-14.648,-19.531,0.000,0
37197.941,-20.996,-8.789,-13.672,-28.809,0.000,0
37197.945,-11.230,-7.812,-20.020,-23.438,0.000,0
37197.949,-17.578,-13.672,-20.508,-17.578,0.000,0
37197.953,-19.531,-14.648,-15.625,-6.836,0.000,0
37197.957,-15.625,-17.578,-18.066,-19.531,0.000,0
37197.961,-18.066,-18.555,-17.578,-32.227,0.000,0
37197.965,-20.996,-11.719,-16.113,-18.555,0.000,0
37197.969,-23.438,-13.184,-18.066,-18.555,0.000,0
37197.973,-26.855,-20.996,-26.367,-31.738,0.000,0
37197.976,-27.832,-23.926,-27.344,-36.133,0.000,0
37197.980,-26.855,-23.926,-23.926,-40.527,0.000,0
37197.984,-33.691,-30.273,-33.203,-37.109,0.000,0
37197.988,-41.016,-39.551,-37.598,-33.691,0.000,0
37197.992,-37.109,-33.203,-33.203,-24.414,0.000,0
37197.996,-31.250,-25.879,-24.414,-15.625,0.000,0
37198.000,-33.203,-23.438,-25.879,-27.832,0.000,0
37198.004,-26.367,-23.926,-33.203,-24.414,0.000,0
37198.008,-20.508,-24.902,-27.344,-19.043,0.000,0
37198.012,-27.832,-24.414,-21.484,-23.438,0.000,0
37198.016,-30.762,-32.227,-21.973,-27.832,0.000,0
37198.019,-27.344,-36.133,-21.973,-35.156,0.000,0
37198.023,-25.879,-33.691,-24.414,-32.715,0.000,0
37198.027,-24.902,-33.691,-29.297,-25.879,0.000,0
37198.031,-26.855,-37.109,-28.809,-29.785,0.000,0
37198.035,-33.691,-31.738,-29.297,-31.250,0.000,0
37198.039,-32.715,-22.949,-33.691,-28.809,0.000,0
37198.043,-37.109,-25.391,-37.598,-28.809,0.000,0
37198.047,-36.621,-28.320,-40.527,-28.809,0.000,0
37198.051,-27.832,-30.762,-41.504,-25.391,0.000,0
37198.055,-24.902,-25.879,-40.039,-18.066,0.000,0
37198.059,-24.902,-27.832,-31.250,-24.414,0.000,0
37198.062,-19.043,-27.832,-23.926,-9.277,0.000,0
37198.066,-19.531,-22.461,-23.926,-6.836,0.000,0
37198.070,-26.855,-23.926,-24.902,-28.320,0.000,0
37198.074,-23.926,-19.531,-20.020,-25.879,0.000,0
37198.078,-19.043,-21.973,-20.996,-12.695,0.000,0
37198.082,-19.043,-24.414,-29.785,-19.043,0.000,0
37198.086,-20.508,-14.160,-28.320,-27.832,0.000,0
37198.090,-20.020,-6.836,-24.414,-12.207,0.000,0
37198.094,-17.578,-11.230,-28.320,-13.184,0.000,0
37198.098,-21.973,-15.137,-22.461,-20.996,0.000,0
37198.101,-29.785,-11.719,-15.625,-19.531,0.000,1
37198.105,-30.273,-20.508,-20.508,-19.043,0.000,0
37198.109,-28.320,-25.879,-23.438,-22.949,0.000,0
37198.113,-31.250,-18.555,-16.113,-20.020,0.000,0
37198.117,-35.645,-20.996,-16.113,-15.137,0.000,0
37198.121,-36.133,-30.762,-28.320,-29.297,0.000,0
37198.125,-35.645,-28.320,-28.809,-27.832,0.000,0
37198.129,-25.391,-17.090,-13.184,4.883,0.000,0
37198.133,-20.996,-18.066,-11.230,9.277,0.000,0
37198.137,-21.484,-22.461,-20.996,-16.113,0.000,0
37198.141,-21.973,-21.484,-26.367,-19.043,0.000,0
37198.144,-22.461,-21.484,-21.484,-20.020,0.000,0
37198.148,-13.672,-22.461,-25.879,-23.926,0.000,0
37198.152,-12.207,-16.602,-22.461,-22.949,0.000,0
37198.156,-19.531,-16.113,-14.160,-28.809,0.000,0
37198.160,-30.762,-26.367,-24.902,-36.621,0.000,0
37198.164,-31.738,-22.949,-33.691,-28.809,0.000,0
37198.168,-28.320,-15.625,-31.250,-22.949,0.000,0
37198.172,-25.879,-16.113,-22.461,-34.180,0.000,0
37198.176,-25.879,-22.949,-19.531,-33.203,0.000,0
37198.180,-33.691,-27.344,-28.809,-34.668,0.000,0
37198.184,-39.062,-27.344,-38.574,-46.387,0.000,0
37198.187,-38.574,-29.785,-40.527,-41.504,0.000,0
37198.191,-32.227,-22.461,-23.438,-39.551,0.000,0
37198.195,-23.438,-19.531,-14.648,-34.668,0.000,0
37198.199,-25.391,-19.531,-27.832,-33.203,0.000,0
37198.203,-35.156,-21.484,-36.133,-42.480,0.000,0
37198.207,-26.855,-24.414,-29.785,-29.297,0.000,0
37198.211,-18.066,-23.926,-23.438,-24.902,0.000,0
37198.215,-20.508,-26.855,-20.020,-34.668,0.000,0
37198.219,-28.320,-28.320,-29.785,-29.785,0.000,0
37198.223,-35.156,-24.414,-30.762,-36.133,0.000,0
37198.226,-30.762,-25.391,-30.762,-35.645,0.000,0
37198.230,-34.180,-30.273,-33.203,-33.203,0.000,0
37198.234,-37.109,-30.762,-18.555,-39.062,0.000,0
37198.238,-32.227,-33.691,-27.832,-30.762,0.000,0
37198.242,-30.762,-34.668,-43.945,-34.668,0.000,0
37198.246,-36.133,-33.203,-40.527,-40.039,0.000,0
37198.250,-29.785,-23.926,-35.645,-26.367,0.000,0
37198.254,-20.996,-21.973,-24.902,-19.043,0.000,0
37198.258,-24.902,-24.414,-22.949,-20.020,0.000,0
37198.262,-26.367,-26.855,-30.762,-31.738,0.000,0
37198.266,-25.391,-27.344,-21.973,-30.762,0.000,0
37198.269,-24.902,-29.297,-20.996,-20.020,0.000,0
37198.273,-29.297,-32.227,-29.297,-23.438,0.000,0
37198.277,-29.297,-30.273,-28.320,-21.484,0.000,0
37198.281,-29.785,-24.902,-24.414,-20.508,0.000,0
37198.285,-31.250,-28.809,-30.273,-27.832,0.000,0
37198.289,-32.715,-35.156,-27.832,-30.762,0.000,0
37198.293,-33.691,-37.598,-16.602,-39.062,0.000,0
37198.297,-36.621,-40.039,-25.879,-40.039,0.000,0
37198.301,-37.109,-46.387,-36.133,-36.621,0.000,0
37198.305,-33.203,-39.062,-27.832,-34.180,0.000,0
37198.309,-24.902,-26.855,-21.973,-23.926,0.000,0
37198.312,-20.996,-26.855,-19.043,-16.602,0.000,0
37198.316,-27.832,-25.391,-20.508,-9.766,0.000,0
37198.320,-31.250,-25.879,-25.391,-24.414,0.000,0
37198.324,-25.391,-27.344,-26.367,-24.902,0.000,0
37198.328,-17.578,-22.461,-27.344,-12.207,0.000,0
37198.332,-10.742,-22.461,-19.531,-23.926,0.000,0
37198.336,-8.301,-25.879,-10.742,-24.414,0.000,0
37198.340,-14.648,-28.809,-17.090,-25.879,0.000,0
37198.344,-20.020,-24.902,-27.344,-32.227,0.000,0
37198.348,-19.531,-23.926,-28.320,-22.949,0.000,0
37198.351,-18.555,-30.273,-25.879,-22.461,0.000,0
37198.355,-20.020,-24.414,-23.926,-24.902,0.000,0
37198.359,-29.297,-26.367,-22.949,-26.855,0.000,0
37198.363,-30.273,-28.320,-20.508,-20.020,0.000,0
37198.367,-19.531,-18.555,-18.066,-9.766,0.000,0
37198.371,-15.625,-18.555,-8.789,-20.996,0.000,0
37198.375,-19.531,-25.391,-15.137,-29.297,0.000,0
37198.379,-22.461,-21.484,-26.367,-20.996,0.000,0
37198.383,-22.949,-15.625,-23.926,-21.973,0.000,0
37198.387,-18.555,-14.160,-16.602,-16.602,0.000,0
37198.391,-12.207,-12.695,-15.625,-14.160,0.000,0
37198.394,-18.555,-16.113,-19.043,-28.320,0.000,0
37198.398,-22.461,-13.672,-15.625,-29.785,0.000,0
37198.402,-24.902,-17.090,-18.066,-29.785,0.000,0
37198.406,-20.996,-24.902,-27.344,-19.043,0.000,0
37198.410,-10.254,-20.020,-21.973,-9.766,0.000,0
37198.414,-8.301,-16.113,-14.648,-3.418,0.000,0
37198.418,-20.508,-20.508,-29.785,-13.672,0.000,0
37198.422,-28.809,-26.367,-38.574,-29.297,0.000,0
37198.426,-20.508,-26.367,-25.879,-15.137,0.000,0
37198.430,-16.113,-22.461,-12.207,-1.465,0.000,0
37198.434,-22.461,-25.879,-19.043,-16.602,0.000,0
37198.437,-26.367,-32.715,-32.715,-36.621,0.000,0
37198.441,-26.367,-27.832,-27.344,-33.203,0.000,0
37198.445,-25.879,-19.043,-19.043,-21.973,0.000,0
37198.449,-20.996,-21.973,-16.113,-27.832,0.000,0
37198.453,-20.508,-26.367,-19.043,-34.180,0.000,0
37198.457,-20.020,-23.438,-25.391,-27.344,0.000,0
37198.461,-28.320,-25.391,-27.344,-23.438,0.000,0
37198.465,-33.691,-31.250,-30.273,-24.414,0.000,0
37198.469,-33.203,-28.809,-30.762,-26.367,0.000,0
37198.473,-34.180,-23.926,-19.531,-18.555,0.000,0
37198.476,-31.738,-20.508,-17.090,-13.184,0.000,0
37198.480,-24.902,-16.113,-20.020,-12.695,0.000,0
37198.484,-26.855,-17.090,-18.555,-6.836,0.000,0
37198.488,-36.133,-24.414,-19.531,-12.695,0.000,0
37198.492,-26.855,-28.320,-20.508,-7.812,0.000,0
37198.496,-21.973,-23.438,-26.855,0.488,0.000,0
37198.500,-26.367,-20.996,-26.367,-17.578,0.000,0
37198.504,-21.973,-20.996,-14.648,-23.438,0.000,0
37198.508,-18.555,-19.531,-11.230,-18.066,0.000,0
37198.512,-21.484,-23.926,-14.648,-23.438,0.000,0
37198.516,-33.203,-29.297,-21.484,-22.461,0.000,0
37198.519,-32.715,-23.438,-11.719,-10.742,0.000,0
37198.523,-24.902,-18.066,-10.254,-12.695,0.000,0
37198.527,-21.973,-24.902,-16.602,-19.043,0.000,0
37198.531,-23.438,-29.297,-12.207,-27.344,0.000,0
37198.535,-31.250,-25.391,-17.090,-30.273,0.000,0
37198.539,-22.461,-19.531,-15.137,-27.344,0.000,0
37198.543,-20.020,-24.902,-6.836,-33.691,0.000,0
37198.547,-27.344,-29.297,-19.531,-39.551,0.000,0
37198.551,-29.785,-26.367,-26.367,-35.645,0.000,0
37198.555,-31.738,-24.902,-26.367,-18.066,0.000,0
37198.559,-34.180,-24.902,-35.156,-22.949,0.000,0
37198.562,-36.133,-21.973,-36.133,-25.391,0.000,0
37198.566,-36.621,-21.484,-29.297,-28.809,0.000,0
37198.570,-25.391,-28.320,-28.320,-33.203,0.000,0
37198.574,-18.555,-23.438,-29.297,-19.531,0.000,0
37198.578,-25.391,-14.160,-25.879,-18.555,0.000,0
37198.582,-27.832,-15.137,-29.297,-23.438,0.000,0
37198.586,-21.484,-15.137,-28.809,-19.531,0.000,0
37198.590,-25.879,-16.602,-16.602,-27.832,0.000,0
37198.594,-31.250,-18.555,-20.508,-38.574,0.000,0
37198.598,-22.949,-12.207,-23.438,-29.785,0.000,0
37198.601,-19.531,-8.789,-24.902,-21.973,0.000,0
37198.605,-12.207,-7.812,-23.438,-8.301,0.000,0
37198.609,-9.277,-9.766,-13.184,0.000,0.000,0
37198.613,-9.766,-12.207,-24.902,-5.859,0.000,0
37198.617,-8.789,-15.137,-35.645,-13.184,0.000,0
37198.621,-17.578,-16.113,-32.227,-16.113,0.000,0
37198.625,-16.113,-11.719,-24.414,-10.742,0.000,0
37198.629,-19.531,-15.625,-20.508,-15.625,0.000,0
37198.633,-26.855,-20.508,-24.902,-19.043,0.000,0
37198.637,-24.902,-20.996,-28.320,-12.207,0.000,0
37198.641,-28.320,-22.461,-24.902,-19.043,0.000,0
37198.644,-32.227,-25.391,-22.949,-29.785,0.000,0
37198.648,-27.344,-23.438,-21.973,-25.879,0.000,0
37198.652,-28.320,-20.020,-18.555,-16.113,0.000,0
37198.656,-22.949,-22.461,-14.648,-8.301,0.000,0
37198.660,-20.508,-26.367,-26.855,-5.371,0.000,0
37198.664,-27.344,-29.297,-36.621,-7.812,0.000,0
37198.668,-21.973,-30.273,-26.855,-19.531,0.000,0
37198.672,-23.438,-24.902,-21.973,-30.762,0.000,0
37198.676,-28.809,-17.578,-24.902,-25.879,0.000,0
37198.680,-32.227,-18.555,-27.832,-22.949,0.000,0
37198.684,-34.668,-25.879,-26.855,-23.926,0.000,0
37198.687,-27.344,-26.855,-26.855,-18.555,0.000,0
37198.691,-26.367,-23.926,-25.391,-19.043,0.000,0
37198.695,-31.250,-19.043,-25.391,-13.184,0.000,0
37198.699,-34.180,-21.973,-30.273,-19.043,0.000,0
37198.703,-34.180,-26.855,-31.250,-26.855,0.000,0
37198.707,-28.809,-23.926,-24.414,-16.602,0.000,0
37198.711,-17.578,-18.066,-21.973,-9.766,0.000,0
37198.715,-17.578,-19.043,-23.926,-15.137,0.000,0
37198.719,-24.414,-25.391,-23.926,-15.625,0.000,0
37198.723,-20.020,-22.949,-30.273,-11.719,0.000,0
37198.726,-25.391,-20.020,-24.414,-21.484,0.000,0
37198.730,-28.320,-11.719,-5.371,-20.020,0.000,0
37198.734,-21.973,-13.672,-15.625,-8.789,0.000,0
37198.738,-23.438,-24.902,-27.344,-19.043,0.000,0
37198.742,-29.297,-20.020,-13.184,-21.484,0.000,2
37198.746,-38.086,-20.996,-13.184,-24.902,0.000,0
37198.750,-45.410,-27.832,-28.809,-30.762,0.000,0
37198.754,-41.016,-29.785,-35.156,-33.203,0.000,0
37198.758,-31.738,-25.879,-21.973,-36.621,0.000,0
37198.762,-28.809,-21.484,-14.648,-25.879,0.000,0
37198.766,-23.926,-21.484,-13.184,-24.902,0.000,0
37198.769,-19.531,-23.438,-13.184,-18.555,0.000,0
37198.773,-27.344,-22.461,-16.113,-22.461,0.000,0
37198.777,-26.367,-23.926,-19.043,-40.039,0.000,0
37198.781,-21.973,-20.508,-19.531,-37.109,0.000,0
37198.785,-27.344,-23.926,-18.066,-35.156,0.000,0
37198.789,-26.367,-25.879,-8.789,-32.715,0.000,0
37198.793,-20.020,-19.043,-11.230,-25.879,0.000,0
37198.797,-27.832,-22.461,-19.531,-32.227,0.000,0
37198.801,-25.391,-26.367,-20.020,-31.250,0.000,0
37198.805,-15.625,-22.461,-16.113,-21.973,0.000,0
37198.809,-17.090,-21.973,-13.672,-22.949,0.000,0
37198.812,-21.973,-21.973,-16.113,-16.113,0.000,0
37198.816,-25.879,-28.320,-19.531,-13.672,0.000,0
37198.820,-26.367,-27.832,-22.461,-26.855,0.000,0
37198.824,-19.531,-21.973,-22.949,-23.438,0.000,0
37198.828,-20.508,-20.996,-20.020,-13.672,0.000,0
37198.832,-20.020,-20.996,-18.555,-24.902,0.000,0
37198.836,-23.926,-18.066,-19.043,-27.344,0.000,0
37198.840,-26.367,-21.484,-30.273,-22.949,0.000,0
37198.844,-24.414,-28.320,-38.086,-34.180,0.000,0
37198.848,-22.461,-23.926,-21.484,-37.109,0.000,0
37198.851,-21.973,-20.508,-17.090,-37.109,0.000,0
37198.855,-14.160,-19.531,-23.926,-30.762,0.000,0
37198.859,-12.207,-17.090,-30.273,-21.973,0.000,0
37198.863,-20.020,-10.254,-22.461,-34.180,0.000,0
37198.867,-14.160,-11.719,-11.230,-37.109,0.000,0
37198.871,-14.648,-17.578,-18.555,-26.855,0.000,0
37198.875,-16.602,-18.066,-25.391,-23.926,0.000,0
37198.879,-12.695,-15.625,-18.066,-16.602,0.000,0
37198.883,-24.414,-15.137,-29.297,-15.137,0.000,0
37198.887,-29.297,-20.020,-41.992,-21.973,0.000,0
37198.891,-32.715,-30.762,-43.457,-21.484,0.000,0
37198.894,-35.645,-21.973,-25.391,-7.812,0.000,0
37198.898,-38.086,-20.996,-21.973,-21.484,0.000,0
37198.902,-41.016,-27.832,-26.855,-24.902,0.000,0
37198.906,-35.156,-19.531,-15.625,-25.879,0.000,0
37198.910,-32.715,-17.090,-23.438,-37.109,0.000,0
37198.914,-34.180,-24.902,-40.527,-32.715,0.000,0
37198.918,-40.039,-23.438,-40.039,-32.715,0.000,0
37198.922,-35.156,-23.926,-27.832,-33.203,0.000,0
37198.926,-23.926,-21.484,-9.766,-25.879,0.000,0
37198.930,-24.414,-18.066,-9.766,-18.066,0.000,0
37198.934,-22.461,-19.531,-20.996,-27.344,0.000,0
37198.937,-28.809,-20.996,-24.902,-28.320,0.000,0
37198.941,-25.879,-20.996,-11.719,-17.090,0.000,0
37198.945,-15.137,-20.508,-12.695,-19.043,0.000,0
37198.949,-29.297,-18.555,-25.879,-19.531,0.000,0
37198.953,-35.156,-23.926,-27.344,-18.066,0.000,0
37198.957,-28.320,-22.461,-29.785,-20.996,0.000,0
37198.961,-29.297,-21.973,-35.645,-26.855,0.000,0
37198.965,-29.785,-27.344,-28.809,-29.297,0.000,0
37198.969,-35.156,-29.297,-26.367,-29.785,0.000,0
37198.973,-36.621,-26.855,-28.809,-26.367,0.000,0
37198.976,-29.785,-20.020,-23.926,-15.137,0.000,0
37198.980,-35.645,-27.832,-31.250,-21.484,0.000,0
37198.984,-40.527,-30.273,-27.344,-29.785,0.000,0
37198.988,-41.504,-23.926,-29.297,-20.508,0.000,0
37198.992,-43.945,-22.949,-35.156,-20.996,0.000,0
37198.996,-43.457,-27.832,-27.832,-32.227,0.000,0
37199.000,-45.898,-27.832,-20.996,-33.691,0.000,0
37199.004,-39.551,-23.926,-19.531,-35.645,0.000,0
37199.008,-34.668,-21.973,-26.855,-38.574,0.000,0
37199.012,-32.227,-19.531,-27.832,-34.668,0.000,0
37199.016,-22.949,-16.113,-26.855,-20.508,0.000,0
37199.019,-22.461,-23.926,-28.809,-15.137,0.000,0
37199.023,-27.344,-31.250,-33.691,-29.785,0.000,0
37199.027,-24.414,-24.902,-35.645,-34.668,0.000,0
37199.031,-17.578,-20.020,-28.809,-22.949,0.000,0
37199.035,-16.602,-26.855,-27.344,-23.438,0.000,0
37199.039,-22.461,-27.832,-24.902,-29.785,0.000,0
37199.043,-25.391,-22.949,-15.625,-25.879,0.000,0
37199.047,-21.484,-23.438,-12.207,-21.973,0.000,0
37199.051,-21.484,-27.832,-15.137,-31.250,0.000,0
37199.055,-24.902,-28.320,-13.184,-28.320,0.000,0
37199.059,-24.902,-20.508,-13.672,-20.508,0.000,0
37199.062,-27.344,-19.043,-17.090,-19.531,0.000,0
37199.066,-30.273,-20.020,-17.578,-29.297,0.000,0
37199.070,-37.598,-24.902,-18.555,-39.062,0.000,0
37199.074,-30.762,-22.949,-11.719,-26.367,0.000,0
37199.078,-19.531,-17.578,-18.555,-10.254,0.000,0
37199.082,-16.602,-17.090,-21.973,-14.648,0.000,0
37199.086,-16.602,-13.672,-14.160,-18.066,0.000,0
37199.090,-21.484,-15.137,-17.090,-16.602,0.000,0
37199.094,-24.902,-23.438,-27.344,-22.949,0.000,0
37199.098,-23.438,-26.367,-30.762,-18.555,0.000,0
37199.101,-26.855,-23.926,-20.020,-13.672,0.000,0
37199.105,-26.855,-17.090,-13.184,-26.855,0.000,0
37199.109,-22.949,-17.090,-19.043,-30.273,0.000,0
37199.113,-26.367,-17.090,-14.648,-20.020,0.000,0
37199.117,-25.879,-12.207,-8.301,-15.625,0.000,0
37199.121,-25.391,-15.137,-17.090,-19.043,0.000,0
37199.125,-33.691,-25.391,-31.738,-18.066,0.000,0
37199.129,-34.180,-29.297,-35.645,-13.184,0.000,0
37199.133,-22.461,-23.438,-25.391,-17.090,0.000,0
37199.137,-17.578,-17.578,-18.066,-11.230,0.000,0
37199.141,-25.879,-21.973,-16.602,-11.719,0.000,0
37199.144,-33.691,-16.602,-14.648,-23.438,0.000,0
37199.148,-38.574,-14.648,-19.531,-29.297,0.000,0
37199.152,-33.203,-20.020,-20.996,-25.391,0.000,0
37199.156,-25.391,-16.602,-20.996,-16.602,0.000,0
37199.160,-29.785,-12.207,-19.043,-22.949,0.000,0
37199.164,-29.785,-11.719,-15.137,-14.160,0.000,0
37199.168,-24.414,-14.160,-21.973,5.371,0.000,0
37199.172,-28.809,-19.531,-30.762,-12.695,0.000,0
37199.176,-30.273,-20.508,-32.227,-26.367,0.000,0
37199.180,-21.973,-20.020,-20.996,-15.625,0.000,0
37199.184,-19.531,-19.531,-18.555,-24.902,0.000,0
37199.187,-24.414,-23.438,-28.809,-27.832,0.000,0
37199.191,-29.785,-22.949,-32.715,-16.113,0.000,0
37199.195,-23.926,-15.625,-28.809,-18.555,0.000,0
37199.199,-17.090,-20.508,-27.832,-18.066,0.000,0
37199.203,-21.973,-22.949,-23.926,-22.949,0.000,0
37199.207,-21.484,-19.531,-21.973,-23.438,0.000,0
37199.211,-22.949,-22.949,-19.531,-20.996,0.000,0
37199.215,-26.855,-26.855,-27.344,-30.273,0.000,0
37199.219,-23.438,-29.785,-35.156,-26.855,0.000,0
37199.223,-17.090,-23.926,-21.484,-16.602,0.000,0
37199.226,-18.066,-14.160,-20.996,-13.672,0.000,0
37199.230,-14.648,-16.602,-34.180,-12.695,0.000,0
37199.234,-13.184,-19.043,-30.762,-17.090,0.000,0
37199.238,-14.648,-11.230,-25.391,-16.113,0.000,0
37199.242,-14.160,-10.254,-18.555,-15.625,0.000,0
37199.246,-18.555,-17.090,-20.508,-24.902,0.000,0
37199.250,-12.207,-15.137,-20.996,-18.555,0.000,0
37199.254,-11.230,-13.184,-17.578,-11.230,0.000,0
37199.258,-10.742,-17.090,-20.020,-6.348,0.000,0
37199.262,-10.254,-18.555,-20.020,-11.719,0.000,0
37199.266,-13.672,-11.719,-15.625,-11.230,0.000,0
37199.269,-14.648,-16.602,-17.578,-9.277,0.000,0
37199.273,-20.020,-25.391,-28.320,-20.508,0.000,0
37199.277,-25.879,-30.273,-27.344,-26.855,0.000,0
37199.281,-20.508,-28.809,-19.043,-24.414,0.000,0
37199.285,-16.602,-23.926,-17.090,-16.113,0.000,0
37199.289,-20.508,-18.066,-14.648,-11.719,0.000,0
37199.293,-13.184,-11.230,-9.766,-3.906,0.000,0
37199.297,-16.113,-12.207,-7.812,-6.836,0.000,0
37199.301,-23.926,-15.137,-9.766,-10.742,0.000,0
37199.305,-19.531,-14.648,-10.254,-3.418,0.000,0
37199.309,-19.531,-12.695,-12.695,-21.484,0.000,0
37199.312,-24.902,-16.602,-13.184,-31.738,0.000,0
37199.316,-16.602,-19.531,-12.695,-15.625,0.000,0
37199.320,-12.695,-18.555,-18.066,-12.695,0.000,0
37199.324,-16.602,-14.160,-18.555,-21.484,0.000,0
37199.328,-1.465,-18.066,-16.113,-0.488,0.000,0
37199.332,14.648,-13.184,-13.184,18.555,0.000,0
37199.336,-10.742,-8.789,-16.602,-17.578,0.000,0
37199.340,-39.551,-11.719,-16.113,-42.480,0.000,0
37199.344,-29.785,-15.137,-17.578,-26.367,0.000,0
37199.348,-14.648,-18.555,-25.879,-18.555,0.000,0
37199.351,-20.996,-7.324,-25.391,-24.902,0.000,0
37199.355,-24.902,-4.395,-17.578,-20.508,0.000,0
37199.359,-24.414,-13.184,-12.695,-20.508,0.000,0
37199.363,-22.461,-10.742,-17.578,-26.855,0.000,0
37199.367,-15.137,-10.254,-24.414,-23.438,0.000,0
37199.371,-16.602,-19.531,-22.461,-19.531,0.000,0
37199.375,-20.996,-17.578,-17.578,-24.414,0.000,0
37199.379,-20.996,-13.672,-19.043,-33.203,0.000,0
37199.383,-21.484,-16.602,-22.949,-31.738,0.000,0
37199.387,-20.020,-18.066,-23.926,-23.438,0.000,0
37199.391,-17.578,-18.555,-24.902,-12.207,0.000,0
37199.394,-21.973,-18.066,-22.461,-14.648,0.000,0
37199.398,-21.484,-23.926,-18.555,-22.461,0.000,0
37199.402,-20.508,-25.391,-19.043,-27.832,0.000,0
37199.406,-18.066,-17.090,-20.508,-21.973,0.000,0
37199.410,-11.719,-14.160,-20.996,-12.695,0.000,0
37199.414,-11.230,-18.555,-18.555,-13.672,0.000,0
37199.418,-6.348,-20.508,-17.090,-14.160,0.000,0
37199.422,-4.395,-19.043,-25.879,-13.672,0.000,0
37199.426,-4.883,-26.855,-30.762,-9.277,0.000,0
37199.430,-7.812,-21.484,-23.438,-6.348,0.000,0
37199.434,-11.230,-12.207,-18.066,-8.789,0.000,0
37199.437,-16.602,-18.555,-18.555,-16.602,0.000,0
37199.441,-23.926,-19.043,-21.484,-24.414,0.000,0
37199.445,-20.508,-13.672,-17.090,-5.371,0.000,2
37199.449,-17.578,-21.484,-17.090,-2.930,0.000,0
37199.453,-22.949,-27.832,-24.902,-31.250,0.000,0
37199.457,-22.461,-22.461,-19.043,-41.016,0.000,0
37199.461,-21.484,-22.461,-10.254,-40.039,0.000,0
37199.465,-25.391,-21.484,-11.719,-35.645,0.000,0
37199.469,-28.320,-20.508,-23.926,-28.809,0.000,0
37199.473,-25.879,-24.414,-27.344,-28.320,0.000,0
37199.476,-25.391,-23.926,-21.973,-29.785,0.000,0
37199.480,-28.809,-27.344,-24.902,-28.809,0.000,0
37199.484,-22.949,-23.438,-23.926,-20.996,0.000,0
37199.488,-20.996,-20.020,-19.531,-21.973,0.000,0
37199.492,-23.926,-22.461,-20.020,-22.461,0.000,0
37199.496,-22.461,-22.949,-14.160,-20.508,0.000,0
37199.500,-18.555,-24.414,-19.531,-15.137,0.000,0
37199.504,-14.648,-19.531,-26.855,-10.742,0.000,0
37199.508,-19.531,-23.438,-23.926,-11.230,0.000,0
37199.512,-17.578,-21.484,-24.902,-4.883,0.000,0
37199.516,-15.137,-16.602,-24.902,-10.742,0.000,0
37199.519,-17.090,-22.461,-19.043,-18.555,0.000,0
37199.523,-10.742,-23.438,-13.184,-17.090,0.000,0
37199.527,-13.184,-26.367,-16.602,-26.367,0.000,0
37199.531,-18.066,-25.391,-15.625,-27.832,0.000,0
37199.535,-13.184,-18.555,-3.906,-27.832,0.000,0
37199.539,-11.230,-20.020,-11.719,-32.715,0.000,0
37199.543,-16.113,-24.902,-23.438,-24.902,0.000,0
37199.547,-21.973,-26.855,-25.879,-17.090,0.000,0
37199.551,-26.855,-21.484,-17.578,-9.766,0.000,0
37199.555,-24.414,-19.531,-4.395,-9.766,0.000,0
37199.559,-19.531,-22.461,-13.184,-14.648,0.000,0
37199.562,-23.926,-15.137,-13.184,-16.602,0.000,0
37199.566,-27.832,-19.531,-12.207,-19.043,0.000,0
37199.570,-27.832,-28.809,-33.203,-15.625,0.000,0
37199.574,-30.273,-32.715,-42.480,-24.414,0.000,0
37199.578,-29.297,-34.668,-33.691,-23.438,0.000,0
37199.582,-20.020,-21.973,-26.855,-8.301,0.000,0
37199.586,-16.602,-17.578,-31.250,-8.301,0.000,0
37199.590,-21.973,-21.484,-38.574,-15.137,0.000,0
37199.594,-24.414,-22.949,-36.621,-26.855,0.000,0
37199.598,-23.438,-29.297,-25.391,-28.320,0.000,0
37199.601,-20.508,-29.785,-30.273,-18.066,0.000,0
37199.605,-19.043,-26.855,-34.668,-22.949,0.000,0
37199.609,-24.414,-29.297,-32.715,-28.320,0.000,0
37199.613,-20.020,-23.926,-26.855,-21.973,0.000,0
37199.617,-5.371,-15.625,-13.672,-12.695,0.000,0
37199.621,-12.207,-15.625,-14.648,-12.207,0.000,0
37199.625,-24.414,-20.996,-22.461,-19.531,0.000,0
37199.629,-27.344,-20.996,-19.043,-22.461,0.000,0
37199.633,-26.367,-19.531,-18.066,-24.902,0.000,0
37199.637,-23.926,-18.555,-25.879,-31.250,0.000,0
37199.641,-20.508,-16.602,-20.996,-29.785,0.000,0
37199.644,-14.648,-11.230,-9.277,-18.555,0.000,0
37199.648,-14.160,-12.207,-11.230,-16.602,0.000,0
37199.652,-14.160,-16.113,-12.695,-19.531,0.000,0
37199.656,-14.160,-18.555,-8.789,-21.973,0.000,0
37199.660,-14.160,-10.254,-10.742,-28.320,0.000,0
37199.664,-8.301,-9.766,-16.602,-26.855,0.000,0
37199.668,-13.184,-16.113,-14.648,-16.602,0.000,0
37199.672,-17.578,-14.648,-11.719,-20.020,0.000,0
37199.676,-12.207,-17.090,-14.160,-28.809,0.000,0
37199.680,-17.578,-22.949,-21.484,-33.203,0.000,0
37199.684,-21.973,-26.367,-27.832,-26.855,0.000,0
37199.687,-21.484,-23.926,-23.926,-19.531,0.000,0
37199.691,-25.879,-21.484,-18.066,-22.949,0.000,0
37199.695,-27.344,-23.438,-23.438,-25.879,0.000,0
37199.699,-28.320,-29.785,-20.508,-27.344,0.000,0
37199.703,-30.762,-30.273,-19.043,-30.273,0.000,0
37199.707,-30.273,-24.902,-24.414,-34.180,0.000,0
37199.711,-24.902,-27.344,-25.391,-31.250,0.000,0
37199.715,-29.785,-27.832,-23.926,-34.668,0.000,0
37199.719,-32.227,-24.414,-26.367,-31.738,0.000,0
37199.723,-22.949,-20.996,-29.785,-17.578,0.000,0
37199.726,-25.391,-21.484,-30.273,-16.602,0.000,0
37199.730,-26.367,-18.555,-19.043,-19.043,0.000,0
37199.734,-25.391,-14.648,-11.719,-9.766,0.000,0
37199.738,-28.809,-18.066,-22.461,-17.578,0.000,0
37199.742,-28.320,-24.414,-27.344,-30.273,0.000,0
37199.746,-28.809,-24.414,-21.484,-25.391,0.000,0
37199.750,-32.227,-18.555,-21.484,-27.832,0.000,0
37199.754,-30.273,-23.926,-27.832,-31.738,0.000,0
37199.758,-29.297,-28.320,-32.715,-28.320,0.000,0
37199.762,-26.367,-23.438,-32.227,-18.555,0.000,0
37199.766,-26.367,-20.996,-27.832,-16.113,0.000,0
37199.769,-30.762,-28.320,-25.391,-31.738,0.000,0
37199.773,-25.879,-31.250,-25.879,-31.738,0.000,0
37199.777,-30.762,-31.250,-33.203,-32.715,0.000,0
37199.781,-40.039,-35.645,-44.434,-40.527,0.000,0
37199.785,-35.156,-34.668,-41.016,-32.227,0.000,0
37199.789,-36.621,-30.762,-36.133,-35.645,0.000,0
37199.793,-42.969,-28.809,-32.227,-41.016,0.000,0
37199.797,-37.598,-28.809,-27.832,-20.020,0.000,0
37199.801,-36.133,-31.738,-30.762,-17.578,0.000,0
37199.805,-35.156,-29.785,-26.367,-28.320,0.000,0
37199.809,-31.738,-34.180,-21.484,-26.367,0.000,0
37199.812,-28.809,-34.180,-23.438,-14.648,0.000,0
37199.816,-28.320,-30.273,-26.855,-15.625,0.000,0
37199.820,-32.227,-29.297,-24.902,-29.785,0.000,0
37199.824,-31.738,-26.855,-28.809,-21.973,0.000,0
37199.828,-27.344,-28.809,-32.227,-27.832,0.000,0
37199.832,-22.461,-25.879,-23.438,-37.109,0.000,0
37199.836,-22.949,-23.438,-19.531,-28.809,0.000,0
37199.840,-20.020,-26.855,-24.414,-28.809,0.000,0
37199.844,-16.602,-27.832,-29.297,-24.902,0.000,0
37199.848,-23.926,-25.391,-29.785,-36.133,0.000,0
37199.851,-25.391,-24.414,-26.367,-42.480,0.000,0
37199.855,-21.973,-19.043,-28.809,-33.203,0.000,0
37199.859,-23.926,-20.020,-31.738,-30.273,0.000,0
37199.863,-30.762,-31.250,-35.645,-34.668,0.000,0
37199.867,-31.738,-32.715,-29.785,-29.297,0.000,0
37199.871,-25.391,-32.715,-20.996,-19.043,0.000,0
37199.875,-28.809,-28.320,-28.320,-32.227,0.000,0
37199.879,-34.180,-27.344,-30.273,-40.039,0.000,0
37199.883,-27.832,-23.926,-23.438,-21.484,0.000,0
37199.887,-21.484,-20.996,-22.949,-9.766,0.000,0
37199.891,-21.973,-21.484,-15.625,-17.090,0.000,0
37199.894,-21.484,-16.602,-20.020,-22.461,0.000,0
37199.898,-15.137,-14.160,-28.320,-18.066,0.000,0
37199.902,-13.672,-21.973,-30.273,-8.301,0.000,0
37199.906,-18.066,-22.949,-23.438,-0.977,0.000,0
37199.910,-26.855,-17.578,-10.742,-24.414,0.000,0
37199.914,-23.438,-14.648,-15.625,-28.320,0.000,0
37199.918,-27.344,-15.625,-26.855,-24.414,0.000,0
37199.922,-32.227,-19.531,-28.809,-21.484,0.000,0
37199.926,-18.555,-15.625,-14.160,-5.371,0.000,0
37199.930,-17.578,-13.672,-11.230,-14.160,0.000,0
37199.934,-27.344,-18.555,-24.414,-15.137,0.000,0
37199.937,-26.855,-22.461,-26.855,-17.578,0.000,0
37199.941,-21.484,-21.484,-22.461,-20.508,0.000,0
37199.945,-24.414,-24.414,-25.391,-15.137,0.000,0
37199.949,-29.785,-22.949,-20.508,-22.461,0.000,0
37199.953,-31.250,-18.066,-17.090,-17.090,0.000,0
37199.957,-33.691,-22.949,-28.809,-8.789,0.000,0
37199.961,-33.203,-29.785,-27.832,-20.508,0.000,0
37199.965,-32.227,-28.320,-28.320,-33.691,0.000,0
37199.969,-28.320,-23.438,-27.832,-34.180,0.000,0
37199.973,-27.344,-19.043,-18.066,-20.996,0.000,0
37199.976,-23.926,-19.531,-27.344,-20.508,0.000,0
37199.980,-22.949,-23.926,-31.738,-27.344,0.000,0
37199.984,-19.531,-16.602,-14.648,-13.184,0.000,1
37199.988,-8.789,-17.578,-14.160,-5.859,0.000,0
37199.992,-5.859,-25.391,-18.555,-5.371,0.000,0
37199.996,-5.859,-19.043,-11.230,-10.742,0.000,0
37200.000,-12.207,-20.996,-11.230,-16.113,0.000,0
37200.004,-20.020,-27.344,-22.949,-10.742,0.000,0
37200.008,-19.043,-22.461,-20.020,-15.137,0.000,0
37200.012,-22.461,-19.531,-18.555,-15.137,0.000,0
37200.016,-26.367,-23.926,-23.926,-9.766,0.000,0
37200.019,-26.367,-25.391,-29.297,-22.461,0.000,0
37200.023,-35.156,-26.855,-38.574,-37.109,0.000,0
37200.027,-33.203,-26.367,-36.133,-33.691,0.000,0
37200.031,-22.949,-18.066,-24.902,-27.344,0.000,0
37200.035,-23.438,-17.578,-23.926,-27.344,0.000,0
37200.039,-23.438,-22.461,-30.762,-20.020,0.000,0
37200.043,-30.762,-19.531,-34.180,-17.090,0.000,0
37200.047,-31.250,-18.066,-25.879,-27.344,0.000,0
37200.051,-30.762,-22.461,-21.973,-32.715,0.000,0
37200.055,-30.762,-20.996,-26.855,-28.809,0.000,0
37200.059,-28.320,-15.137,-18.555,-20.996,0.000,0
37200.062,-23.926,-13.672,-10.742,-5.859,0.000,0
37200.066,-26.367,-23.438,-24.902,-13.184,0.000,0
37200.070,-29.297,-29.785,-26.367,-20.020,0.000,0
37200.074,-31.738,-27.832,-20.020,-23.926,0.000,0
37200.078,-31.738,-23.926,-20.508,-22.949,0.000,0
37200.082,-27.344,-24.414,-25.391,-11.230,0.000,0
37200.086,-28.320,-23.438,-24.414,-16.113,0.000,0
37200.090,-23.438,-17.578,-15.625,-19.531,0.000,0
37200.094,-19.043,-20.996,-19.531,-20.020,0.000,0
37200.098,-25.391,-25.391,-30.273,-31.250,0.000,0
37200.101,-27.832,-22.461,-22.461,-23.438,0.000,0
37200.105,-27.832,-25.391,-17.578,-25.879,0.000,0
37200.109,-29.785,-29.785,-26.855,-27.832,0.000,0
37200.113,-25.391,-21.484,-28.809,-19.043,0.000,0
37200.117,-30.273,-23.926,-27.344,-20.508,0.000,0
37200.121,-36.621,-22.949,-25.879,-25.879,0.000,0
37200.125,-35.156,-24.414,-29.785,-26.367,0.000,0
37200.129,-39.551,-31.250,-33.691,-24.902,0.000,0
37200.133,-38.574,-26.855,-30.273,-27.832,0.000,0
37200.137,-31.738,-25.391,-28.809,-29.785,0.000,0
37200.141,-31.738,-21.484,-32.715,-20.020,0.000,0
37200.144,-28.809,-22.949,-34.180,-20.020,0.000,0
37200.148,-29.297,-29.785,-26.855,-37.109,0.000,0
37200.152,-40.039,-27.344,-27.344,-37.109,0.000,0
37200.156,-40.527,-28.320,-39.551,-35.156,0.000,0
37200.160,-41.504,-32.715,-46.875,-36.133,0.000,0
37200.164,-40.527,-33.691,-36.621,-33.203,0.000,0
37200.168,-24.414,-23.438,-23.438,-20.996,0.000,0
37200.172,-12.207,-17.090,-23.926,-17.090,0.000,0
37200.176,-9.766,-15.625,-23.438,-18.555,0.000,0
37200.180,-13.672,-19.043,-31.738,-17.090,0.000,0
37200.184,-13.672,-26.855,-41.016,-23.438,0.000,0
37200.187,-16.113,-26.855,-35.645,-29.785,0.000,0
37200.191,-23.438,-26.855,-38.574,-29.297,0.000,0
37200.195,-18.066,-28.320,-35.645,-15.137,0.000,0
37200.199,-18.555,-29.297,-35.156,-7.324,0.000,0
37200.203,-20.508,-29.785,-35.645,-21.973,0.000,0
37200.207,-23.926,-24.902,-21.484,-25.391,0.000,0
37200.211,-31.250,-20.020,-18.066,-16.113,0.000,0
37200.215,-29.785,-23.926,-26.855,-14.648,0.000,0
37200.219,-31.738,-26.855,-28.809,-20.508,0.000,0
37200.223,-40.527,-33.691,-34.668,-36.621,0.000,0
37200.226,-40.039,-37.598,-36.133,-45.410,0.000,0
37200.230,-28.809,-28.809,-33.691,-40.039,0.000,0
37200.234,-24.414,-23.926,-28.809,-36.133,0.000,0
37200.238,-21.484,-19.531,-22.949,-28.809,0.000,0
37200.242,-20.996,-19.531,-25.879,-27.344,0.000,0
37200.246,-29.297,-22.461,-21.973,-43.945,0.000,0
37200.250,-28.809,-25.391,-29.297,-41.016,0.000,0
37200.254,-21.973,-26.367,-32.227,-25.879,0.000,0
37200.258,-26.367,-24.414,-24.414,-30.273,0.000,0
37200.262,-29.785,-28.320,-25.879,-37.109,0.000,0
37200.266,-20.020,-26.855,-19.531,-28.809,0.000,0
37200.269,-16.113,-26.367,-23.438,-23.926,0.000,0
37200.273,-22.461,-31.738,-32.227,-26.855,0.000,0
37200.277,-27.832,-34.668,-28.809,-24.902,0.000,0
37200.281,-23.438,-27.344,-16.113,-18.066,0.000,0
37200.285,-17.090,-22.461,-14.648,-25.391,0.000,0
37200.289,-23.438,-21.484,-20.508,-24.414,0.000,0
37200.293,-28.320,-23.438,-28.320,-18.555,0.000,0
37200.297,-30.762,-30.273,-31.250,-24.414,0.000,0
37200.301,-31.738,-26.367,-19.531,-24.414,0.000,0
37200.305,-37.109,-27.832,-24.414,-21.973,0.000,0
37200.309,-37.109,-31.250,-23.438,-27.344,0.000,0
37200.312,-32.715,-31.738,-22.949,-35.156,0.000,0
37200.316,-29.297,-23.926,-29.297,-22.461,0.000,0
37200.320,-23.438,-19.043,-26.855,-16.113,0.000,0
37200.324,-30.273,-21.973,-22.461,-21.484,0.000,0
37200.328,-32.715,-19.043,-22.461,-11.719,0.000,0
37200.332,-29.785,-25.879,-25.879,-24.414,0.000,0
37200.336,-31.738,-27.832,-28.809,-36.133,0.000,0
37200.340,-35.645,-22.949,-34.668,-28.809,0.000,0
37200.344,-34.668,-22.949,-29.297,-27.832,0.000,0
37200.348,-26.855,-18.066,-26.855,-24.902,0.000,0
37200.351,-20.508,-19.043,-34.668,-26.367,0.000,0
37200.355,-17.578,-20.996,-26.855,-26.855,0.000,0
37200.359,-20.996,-23.926,-27.344,-25.391,0.000,0
37200.363,-28.320,-30.762,-36.133,-32.715,0.000,0
37200.367,-18.555,-29.785,-30.762,-30.762,0.000,0
37200.371,-19.531,-28.809,-29.297,-20.508,0.000,0
37200.375,-33.691,-30.762,-37.109,-31.250,0.000,0
37200.379,-33.691,-36.133,-33.203,-46.875,0.000,0
37200.383,-41.016,-33.203,-37.109,-41.992,0.000,0
37200.387,-42.969,-25.391,-39.551,-28.809,0.000,0
37200.391,-40.039,-26.855,-42.969,-36.621,0.000,0
37200.394,-40.039,-29.297,-46.875,-39.551,0.000,0
37200.398,-36.133,-29.785,-35.156,-45.898,0.000,0
37200.402,-31.250,-28.809,-32.227,-46.875,0.000,0
37200.406,-34.180,-25.391,-37.598,-41.992,0.000,0
37200.410,-31.250,-22.949,-31.738,-37.598,0.000,0
37200.414,-14.160,-19.531,-25.391,-17.578,0.000,0
37200.418,-13.184,-16.602,-22.949,-14.160,0.000,0
37200.422,-25.879,-17.090,-25.391,-29.785,0.000,0
37200.426,-31.250,-20.996,-30.762,-29.297,0.000,0
37200.430,-25.879,-19.043,-21.484,-18.066,0.000,0
37200.434,-23.926,-8.301,-13.672,-16.113,0.000,0
37200.437,-28.320,-10.254,-22.461,-27.344,0.000,0
37200.441,-32.227,-15.625,-23.926,-28.809,0.000,0
37200.445,-28.809,-17.090,-20.020,-7.812,0.000,0
37200.449,-25.879,-23.438,-25.879,-7.812,0.000,0
37200.453,-25.879,-20.996,-23.926,-29.297,0.000,0
37200.457,-26.367,-16.113,-16.602,-39.551,0.000,0
37200.461,-27.832,-15.137,-11.719,-37.109,0.000,0
37200.465,-26.367,-14.648,-15.625,-28.320,0.000,0
37200.469,-26.855,-20.020,-22.461,-28.320,0.000,0
37200.473,-26.855,-20.508,-26.855,-31.738,0.000,0
37200.476,-22.949,-20.508,-18.066,-33.691,0.000,0
37200.480,-23.438,-17.578,-17.090,-31.738,0.000,0
37200.484,-29.785,-10.742,-25.879,-28.809,0.000,0
37200.488,-30.762,-12.207,-22.461,-27.832,0.000,0
37200.492,-25.391,-15.625,-22.461,-17.090,0.000,0
37200.496,-19.043,-16.602,-21.973,-19.043,0.000,0
37200.500,-20.020,-16.113,-24.902,-22.461,0.000,0
37200.504,-27.344,-24.414,-28.809,-15.137,0.000,0
37200.508,-25.391,-24.902,-21.484,-7.324,0.000,0
37200.512,-24.902,-21.484,-23.438,-21.484,0.000,0
37200.516,-26.855,-27.344,-26.367,-29.785,0.000,0
37200.519,-26.367,-25.391,-26.367,-25.879,0.000,0
37200.523,-30.273,-21.973,-37.109,-36.621,0.000,0
37200.527,-38.574,-30.273,-37.109,-32.227,0.000,0
37200.531,-39.062,-32.227,-37.109,-31.738,0.000,0
37200.535,-24.414,-19.043,-16.602,-23.926,0.000,0
37200.539,-22.949,-16.113,-8.301,-15.625,0.000,0
37200.543,-39.062,-23.438,-33.203,-32.715,0.000,0
37200.547,-37.598,-26.855,-30.273,-34.668,0.000,0
37200.551,-27.832,-25.391,-24.414,-25.879,0.000,0
37200.555,-30.762,-29.785,-27.832,-40.039,0.000,0
37200.559,-35.645,-35.156,-30.273,-32.715,0.000,0
37200.562,-41.504,-28.320,-39.062,-28.320,0.000,0
37200.566,-40.527,-29.297,-39.062,-33.691,0.000,0
37200.570,-37.598,-38.086,-40.039,-21.973,0.000,0
37200.574,-37.598,-41.504,-37.109,-39.551,0.000,0
37200.578,-29.297,-34.668,-21.973,-52.246,0.000,2
37200.582,-25.391,-30.273,-22.949,-31.738,0.000,0
37200.586,-34.180,-31.738,-37.598,-35.645,0.000,0
37200.590,-41.016,-31.738,-41.016,-41.016,0.000,0
37200.594,-38.574,-32.227,-33.203,-30.762,0.000,0
37200.598,-30.762,-32.227,-27.832,-36.621,0.000,0
37200.601,-29.297,-31.738,-39.062,-29.297,0.000,0
37200.605,-28.809,-26.855,-39.062,-17.578,0.000,0
37200.609,-30.273,-27.344,-36.621,-25.879,0.000,0
37200.613,-25.391,-25.879,-35.156,-26.367,0.000,0
37200.617,-28.320,-22.949,-33.203,-25.879,0.000,0
37200.621,-31.738,-26.855,-35.645,-36.133,0.000,0
37200.625,-28.320,-21.973,-23.926,-35.645,0.000,0
37200.629,-34.180,-20.996,-22.949,-30.762,0.000,0
37200.633,-35.156,-28.809,-31.250,-32.715,0.000,0
37200.637,-32.715,-28.320,-24.414,-26.367,0.000,0
37200.641,-35.645,-22.949,-21.973,-14.160,0.000,0
37200.644,-30.762,-24.902,-23.926,-24.414,0.000,0
37200.648,-28.809,-30.273,-29.297,-35.645,0.000,0
37200.652,-24.902,-28.809,-23.438,-23.438,0.000,0
37200.656,-14.648,-20.508,-10.742,-21.973,0.000,0
37200.660,-23.438,-23.438,-15.137,-35.645,0.000,0
37200.664,-25.879,-30.273,-19.531,-22.949,0.000,0
37200.668,-23.438,-23.438,-13.184,-12.695,0.000,0
37200.672,-29.785,-12.695,-8.789,-26.855,0.000,0
37200.676,-29.297,-18.555,-19.531,-22.949,0.000,0
37200.680,-24.902,-20.508,-25.879,-17.090,0.000,0
37200.684,-23.438,-20.020,-25.391,-22.461,0.000,0
37200.687,-20.508,-17.578,-27.344,-14.648,0.000,0
37200.691,-25.391,-27.344,-35.156,-23.438,0.000,0
37200.695,-24.414,-31.250,-28.320,-33.203,0.000,0
37200.699,-11.719,-17.578,-18.555,-20.020,0.000,0
37200.703,-15.137,-15.137,-22.949,-16.602,0.000,0
37200.707,-20.996,-20.996,-25.391,-12.207,0.000,0
37200.711,-18.066,-19.531,-25.391,-7.324,0.000,0
37200.715,-17.578,-19.531,-20.020,-14.160,0.000,0
37200.719,-21.973,-23.926,-22.461,-17.578,0.000,0
37200.723,-22.461,-22.949,-30.273,-21.973,0.000,0
37200.726,-21.973,-20.508,-26.367,-19.043,0.000,0
37200.730,-26.367,-19.043,-24.902,-15.137,0.000,0
37200.734,-32.227,-21.484,-23.926,-22.949,0.000,0
37200.738,-26.855,-20.508,-24.414,-21.973,0.000,0
37200.742,-16.602,-21.973,-27.344,-20.508,0.000,0
37200.746,-16.113,-24.902,-23.438,-16.602,0.000,0
37200.750,-16.602,-20.508,-20.508,-19.043,0.000,0
37200.754,-21.973,-17.090,-20.020,-29.785,0.000,0
37200.758,-24.902,-20.020,-27.344,-25.391,0.000,0
37200.762,-21.973,-19.043,-30.273,-28.320,0.000,0
37200.766,-27.832,-19.043,-31.738,-36.621,0.000,0
37200.769,-25.391,-25.391,-30.762,-33.203,0.000,0
37200.773,-15.137,-19.043,-15.137,-29.297,0.000,0
37200.777,-21.973,-13.184,-11.719,-24.414,0.000,0
37200.781,-24.414,-17.578,-16.602,-14.160,0.000,0
37200.785,-20.996,-11.230,-12.207,-10.254,0.000,0
37200.789,-25.879,-11.719,-16.602,-18.066,0.000,0
37200.793,-24.414,-19.043,-20.996,-21.973,0.000,0
37200.797,-17.578,-16.602,-17.578,-22.949,0.000,0
37200.801,-24.902,-19.531,-23.926,-32.227,0.000,0
37200.805,-27.344,-22.461,-28.320,-23.926,0.000,0
37200.809,-19.531,-22.949,-26.367,-11.230,0.000,0
37200.812,-18.555,-25.391,-16.113,-16.113,0.000,0
37200.816,-18.555,-22.949,-16.602,-20.020,0.000,0
37200.820,-16.602,-19.043,-23.926,-19.531,0.000,0
37200.824,-14.648,-16.602,-25.391,-20.996,0.000,0
37200.828,-20.508,-25.391,-36.133,-24.902,0.000,0
37200.832,-23.438,-27.832,-27.344,-25.391,0.000,0
37200.836,-15.625,-17.578,-12.695,-15.137,0.000,0
37200.840,-18.555,-17.578,-26.855,-14.648,0.000,0
37200.844,-17.090,-20.020,-29.297,-10.254,0.000,0
37200.848,-7.324,-16.602,-16.113,-9.766,0.000,0
37200.851,-9.766,-18.066,-16.602,-18.066,0.000,0
37200.855,-25.391,-20.996,-23.926,-21.973,0.000,0
37200.859,-28.320,-15.625,-29.785,-34.180,0.000,0
37200.863,-15.137,-12.695,-25.879,-27.344,0.000,0
37200.867,-13.672,-10.254,-18.066,-16.113,0.000,0
37200.871,-16.113,-18.066,-25.879,-28.809,0.000,0
37200.875,-11.719,-20.996,-28.809,-33.203,0.000,0
37200.879,-7.324,-16.113,-22.949,-13.672,0.000,0
37200.883,-2.441,-13.184,-18.066,-4.395,0.000,0
37200.887,0.000,-11.230,-16.113,-4.883,0.000,0
37200.891,-8.301,-16.602,-21.484,-8.301,0.000,0
37200.894,-16.602,-20.020,-21.973,-14.648,0.000,0
37200.898,-20.996,-17.090,-17.578,-14.648,0.000,0
37200.902,-19.531,-18.555,-20.508,-22.461,0.000,0
37200.906,-18.555,-24.902,-29.297,-17.578,0.000,0
37200.910,-27.832,-22.461,-16.602,-15.625,0.000,0
37200.914,-24.902,-19.531,-9.277,-19.043,0.000,0
37200.918,-15.625,-17.578,-18.555,-19.531,0.000,0
37200.922,-23.926,-15.137,-15.625,-17.578,0.000,0
37200.926,-25.391,-8.789,-12.695,-5.859,0.000,0
37200.930,-16.602,-15.137,-7.324,-17.090,0.000,0
37200.934,-20.996,-24.414,-6.348,-21.973,0.000,0
37200.937,-27.832,-15.625,-8.789,-22.461,0.000,0
37200.941,-25.391,-10.742,-5.859,-19.531,0.000,0
37200.945,-18.066,-10.742,-12.207,-2.930,0.000,0
37200.949,-22.461,-14.160,-22.949,-19.531,0.000,0
37200.953,-24.902,-15.137,-17.090,-23.438,0.000,0
37200.957,-20.020,-15.625,-13.184,-4.883,0.000,0
37200.961,-25.391,-26.855,-24.902,-13.672,0.000,0
37200.965,-23.926,-26.367,-23.438,-12.695,0.000,0
37200.969,-23.926,-24.902,-18.555,-12.695,0.000,0
37200.973,-19.531,-23.926,-18.555,-13.672,0.000,0
37200.976,-16.113,-17.090,-27.344,-9.277,0.000,0
37200.980,-25.391,-18.066,-37.109,-23.926,0.000,0
37200.984,-25.391,-19.531,-37.598,-29.297,0.000,0
37200.988,-19.531,-19.043,-28.809,-19.531,0.000,0
37200.992,-25.391,-22.949,-31.250,-14.160,0.000,0
37200.996,-26.855,-23.926,-41.992,-20.996,0.000,0
37201.000,-20.020,-16.602,-33.691,-19.043,0.000,0
37201.004,-18.066,-16.113,-31.250,-19.043,0.000,0
37201.008,-20.020,-29.297,-40.527,-26.855,0.000,0
37201.012,-21.484,-28.320,-32.227,-19.531,0.000,0
37201.016,-18.066,-17.090,-19.531,-4.883,0.000,0
37201.019,-21.484,-20.020,-23.438,-16.113,0.000,0
37201.023,-31.738,-26.367,-28.809,-31.250,0.000,0
37201.027,-33.203,-26.855,-19.531,-26.855,0.000,0
37201.031,-29.297,-24.902,-16.113,-19.531,0.000,0
37201.035,-31.738,-25.391,-28.809,-21.484,0.000,0
37201.039,-35.156,-25.391,-24.902,-24.414,0.000,0
37201.043,-34.180,-25.879,-17.578,-11.230,0.000,0
37201.047,-31.250,-23.438,-20.996,-10.742,0.000,0
37201.051,-33.691,-22.461,-20.508,-33.203,0.000,0
37201.055,-39.551,-28.809,-25.391,-39.062,0.000,0
37201.059,-31.250,-21.973,-20.508,-24.902,0.000,0
37201.062,-24.902,-20.996,-20.508,-11.719,0.000,0
37201.066,-26.855,-27.832,-22.949,-2.930,0.000,0
37201.070,-23.926,-28.809,-17.090,-5.859,0.000,0
37201.074,-18.555,-28.809,-22.461,-15.137,0.000,0
37201.078,-14.648,-26.855,-22.949,-18.066,0.000,0
37201.082,-13.672,-27.344,-20.996,-15.625,0.000,0
37201.086,-17.090,-28.809,-27.832,-13.184,0.000,0
37201.090,-14.160,-29.785,-24.414,-21.973,0.000,0
37201.094,-17.578,-29.297,-27.832,-20.996,0.000,0
37201.098,-17.578,-33.691,-41.992,-14.160,0.000,0
37201.101,-16.113,-37.109,-40.527,-23.926,0.000,0
37201.105,-20.996,-30.762,-28.809,-22.461,0.000,0
37201.109,-14.160,-28.809,-19.043,-12.207,0.000,0
37201.113,-14.160,-28.320,-22.461,-20.020,0.000,0
37201.117,-13.672,-24.902,-18.555,-19.531,0.000,0
37201.121,-11.230,-20.996,-16.113,-20.508,0.000,0
37201.125,-17.090,-22.461,-30.762,-26.367,0.000,0
37201.129,-20.020,-24.902,-28.320,-33.691,0.000,0
37201.133,-20.020,-23.926,-26.855,-37.109,0.000,0
37201.137,-20.020,-20.508,-29.297,-28.320,0.000,0
37201.141,-15.625,-18.066,-28.320,-27.344,0.000,0
37201.144,-12.207,-20.508,-33.691,-28.320,0.000,0
37201.148,-15.137,-21.484,-30.762,-33.203,0.000,0
37201.152,-24.902,-21.484,-34.668,-38.574,0.000,0
37201.156,-24.414,-26.855,-44.922,-36.133,0.000,0
37201.160,-26.855,-30.273,-48.828,-33.691,0.000,0
37201.164,-27.832,-23.438,-38.574,-29.297,0.000,0
37201.168,-20.996,-22.949,-32.715,-20.508,0.000,0
37201.172,-18.555,-19.043,-32.227,-8.789,0.000,0
37201.176,-17.090,-9.277,-24.414,-10.742,0.000,0
37201.180,-20.508,-12.207,-22.461,-26.855,0.000,0
37201.184,-19.043,-12.207,-22.949,-26.855,0.000,0
37201.187,-28.320,-16.602,-24.902,-29.297,0.000,0
37201.191,-37.598,-27.832,-28.809,-37.598,0.000,0
37201.195,-30.273,-26.855,-30.273,-13.184,0.000,0
37201.199,-28.320,-25.391,-36.621,-10.254,0.000,0
37201.203,-29.297,-27.344,-38.574,-34.668,0.000,0
37201.207,-31.738,-26.855,-31.250,-39.062,0.000,0
37201.211,-39.551,-27.344,-29.785,-34.668,0.000,2
37201.215,-41.016,-35.645,-43.945,-33.203,0.000,0
37201.219,-43.457,-35.156,-47.852,-40.527,0.000,0
37201.223,-42.969,-29.785,-40.527,-37.598,0.000,0
37201.226,-31.250,-28.809,-26.855,-20.996,0.000,0
37201.230,-25.879,-25.391,-21.484,-18.555,0.000,0
37201.234,-30.762,-22.949,-27.344,-26.367,0.000,0
37201.238,-27.832,-25.879,-20.996,-20.020,0.000,0
37201.242,-22.949,-20.508,-15.137,-20.508,0.000,0
37201.246,-31.738,-22.949,-23.438,-23.438,0.000,0
37201.250,-35.156,-24.902,-25.391,-25.391,0.000,0
37201.254,-35.645,-15.625,-18.555,-27.344,0.000,0
37201.258,-38.574,-18.066,-15.137,-23.438,0.000,0
37201.262,-37.109,-25.391,-26.367,-14.160,0.000,0
37201.266,-32.227,-28.320,-20.996,-15.625,0.000,0
37201.269,-29.297,-26.367,-14.648,-22.461,0.000,0
37201.273,-27.832,-27.344,-29.297,-21.973,0.000,0
37201.277,-26.367,-28.320,-33.203,-23.438,0.000,0
37201.281,-29.785,-23.438,-30.273,-27.832,0.000,0
37201.285,-32.227,-21.484,-17.578,-29.297,0.000,0
37201.289,-29.785,-20.996,-22.949,-30.273,0.000,0
37201.293,-30.273,-21.973,-32.715,-39.062,0.000,0
37201.297,-30.762,-19.531,-19.043,-28.809,0.000,0
37201.301,-37.109,-27.344,-26.855,-25.879,0.000,0
37201.305,-32.715,-31.738,-26.855,-25.879,0.000,0
37201.309,-21.484,-27.344,-24.902,-24.414,0.000,0
37201.312,-25.391,-27.832,-38.086,-29.297,0.000,0
37201.316,-25.879,-29.297,-33.203,-22.461,0.000,0
37201.320,-26.367,-29.297,-30.273,-7.812,0.000,0
37201.324,-27.832,-31.738,-37.598,-9.277,0.000,0
37201.328,-33.691,-35.645,-26.367,-30.273,0.000,0
37201.332,-36.621,-28.320,-20.996,-36.133,0.000,0
37201.336,-25.879,-21.973,-27.832,-28.320,0.000,0
37201.340,-27.344,-26.855,-28.809,-25.391,0.000,0
37201.344,-32.715,-27.344,-28.320,-36.621,0.000,0
37201.348,-25.879,-27.344,-24.414,-33.203,0.000,0
37201.351,-26.367,-28.320,-26.855,-23.438,0.000,0
37201.355,-33.203,-33.203,-36.133,-23.438,0.000,0
37201.359,-43.945,-37.109,-37.109,-30.273,0.000,0
37201.363,-41.016,-32.227,-25.391,-32.715,0.000,0
37201.367,-32.227,-28.320,-19.043,-29.785,0.000,0
37201.371,-29.785,-32.227,-25.879,-31.738,0.000,0
37201.375,-29.785,-34.668,-25.391,-20.508,0.000,0
37201.379,-37.598,-32.715,-26.367,-25.879,0.000,0
37201.383,-38.086,-30.762,-32.227,-39.062,0.000,0
37201.387,-27.832,-26.367,-20.508,-32.227,0.000,0
37201.391,-26.855,-28.809,-21.973,-26.367,0.000,0
37201.394,-29.785,-33.203,-26.367,-20.020,0.000,0
37201.398,-27.832,-26.855,-20.508,-16.602,0.000,0
37201.402,-30.273,-22.949,-23.438,-16.113,0.000,0
37201.406,-31.738,-28.320,-26.855,-24.414,0.000,0
37201.410,-29.297,-20.996,-26.367,-30.273,0.000,0
37201.414,-27.832,-13.672,-26.367,-25.391,0.000,0
37201.418,-29.785,-20.996,-27.344,-17.578,0.000,0
37201.422,-35.156,-30.273,-30.762,-22.949,0.000,0
37201.426,-33.203,-29.297,-38.086,-34.180,0.000,0
37201.430,-26.855,-25.391,-38.086,-34.180,0.000,0
37201.434,-22.461,-20.020,-27.832,-27.344,0.000,0
37201.437,-21.484,-18.066,-20.508,-23.438,0.000,0
37201.441,-26.855,-21.973,-24.414,-28.809,0.000,0
37201.445,-32.227,-22.949,-18.555,-26.367,0.000,0
37201.449,-26.367,-23.926,-22.461,-17.578,0.000,0
37201.453,-20.020,-25.879,-40.039,-23.438,0.000,0
37201.457,-24.414,-28.320,-36.621,-29.785,0.000,0
37201.461,-25.391,-26.367,-31.250,-18.555,0.000,0
37201.465,-29.297,-26.367,-26.367,-22.461,0.000,0
37201.469,-34.180,-29.785,-30.273,-37.109,0.000,0
37201.473,-31.738,-28.809,-34.180,-41.016,0.000,0
37201.476,-27.344,-31.738,-22.949,-26.367,0.000,0
37201.480,-21.973,-36.621,-26.855,-18.555,0.000,0
37201.484,-20.020,-32.227,-35.645,-24.414,0.000,0
37201.488,-23.438,-29.785,-32.715,-16.602,0.000,0
37201.492,-17.090,-27.832,-24.902,-5.859,0.000,0
37201.496,-17.090,-28.320,-22.461,-17.578,0.000,0
37201.500,-21.484,-30.273,-25.879,-28.320,0.000,0
37201.504,-18.555,-34.668,-28.320,-25.879,0.000,0
37201.508,-20.508,-29.297,-26.855,-26.855,0.000,0
37201.512,-21.484,-20.020,-21.973,-16.602,0.000,0
37201.516,-22.461,-21.484,-23.438,-2.441,0.000,0
37201.519,-34.180,-27.832,-35.156,-21.484,0.000,0
37201.523,-34.668,-28.320,-23.926,-41.016,0.000,0
37201.527,-29.785,-26.367,-15.137,-28.320,0.000,0
37201.531,-31.250,-25.879,-27.344,-28.809,0.000,0
37201.535,-29.297,-24.902,-22.949,-30.762,0.000,0
37201.539,-28.320,-23.926,-22.461,-18.555,0.000,0
37201.543,-24.414,-20.020,-20.020,-25.391,0.000,0
37201.547,-19.043,-22.461,-21.973,-34.668,0.000,0
37201.551,-21.973,-28.320,-31.738,-28.320,0.000,0
37201.555,-27.832,-26.367,-30.762,-21.484,0.000,0
37201.559,-24.902,-27.344,-39.062,-24.414,0.000,0
37201.562,-22.461,-33.691,-40.527,-27.832,0.000,0
37201.566,-28.320,-27.344,-27.832,-23.926,0.000,0
37201.570,-38.086,-25.879,-29.785,-29.297,0.000,0
37201.574,-33.691,-30.762,-37.598,-33.691,0.000,0
37201.578,-20.508,-26.855,-38.086,-20.996,0.000,0
37201.582,-10.742,-27.344,-29.785,-6.348,0.000,0
37201.586,-1.465,-22.949,-22.949,-8.789,0.000,0
37201.590,0.000,-17.578,-26.855,-18.555,0.000,0
37201.594,-0.488,-25.391,-31.738,-15.625,0.000,0
37201.598,-6.836,-27.832,-29.785,-9.277,0.000,0
37201.601,-16.602,-23.438,-23.926,-11.230,0.000,0
37201.605,-22.949,-28.809,-29.785,-12.207,0.000,0
37201.609,-27.832,-30.273,-40.527,-12.207,0.000,0
37201.613,-30.273,-28.320,-35.156,-20.020,0.000,0
37201.617,-25.391,-32.715,-37.109,-19.043,0.000,0
37201.621,-26.367,-29.785,-38.086,-29.785,0.000,0
37201.625,-41.992,-29.785,-37.598,-39.551,0.000,0
37201.629,-47.363,-35.156,-45.898,-37.598,0.000,0
37201.633,-43.945,-34.668,-46.387,-33.691,0.000,0
37201.637,-41.504,-29.785,-45.410,-24.414,0.000,0
37201.641,-34.180,-20.996,-34.668,-29.785,0.000,0
37201.644,-24.902,-19.043,-29.297,-22.461,0.000,0
37201.648,-32.227,-24.414,-37.598,-14.160,0.000,0
37201.652,-36.621,-25.391,-41.992,-30.762,0.000,0
37201.656,-24.414,-20.996,-33.203,-29.785,0.000,0
37201.660,-20.020,-20.508,-23.926,-21.973,0.000,0
37201.664,-23.438,-22.461,-34.180,-23.438,0.000,0
37201.668,-30.762,-20.996,-35.645,-27.832,0.000,0
37201.672,-29.785,-22.949,-32.227,-24.414,0.000,0
37201.676,-21.484,-19.043,-28.809,-15.625,0.000,0
37201.680,-24.902,-19.043,-23.438,-21.484,0.000,0
37201.684,-40.527,-24.902,-25.879,-29.297,0.000,0
37201.687,-39.062,-22.949,-28.809,-30.273,0.000,0
37201.691,-28.809,-24.902,-32.715,-25.391,0.000,0
37201.695,-34.180,-28.809,-39.062,-26.855,0.000,0
37201.699,-25.879,-31.738,-33.691,-35.645,0.000,0
37201.703,-24.414,-32.715,-29.297,-27.344,0.000,0
37201.707,-34.668,-31.250,-37.598,-24.902,0.000,0
37201.711,-33.203,-31.738,-47.363,-31.250,0.000,0
37201.715,-32.715,-35.645,-44.434,-26.855,0.000,0
37201.719,-28.809,-28.809,-30.273,-16.602,0.000,0
37201.723,-27.832,-20.508,-28.320,-20.020,0.000,0
37201.726,-32.227,-24.902,-33.691,-23.438,0.000,0
37201.730,-32.715,-30.273,-25.879,-23.438,0.000,0
37201.734,-35.156,-26.367,-21.484,-32.227,0.000,0
37201.738,-26.367,-22.949,-22.949,-32.715,0.000,0
37201.742,-29.297,-31.738,-20.996,-36.133,0.000,0
37201.746,-37.598,-31.250,-28.320,-39.551,0.000,0
37201.750,-25.879,-22.461,-26.367,-31.738,0.000,0
37201.754,-16.602,-22.461,-27.832,-21.973,0.000,0
37201.758,-23.926,-25.391,-28.809,-22.949,0.000,0
37201.762,-24.902,-25.391,-23.438,-28.320,0.000,0
37201.766,-18.555,-19.043,-25.879,-19.531,0.000,0
37201.769,-19.531,-20.020,-24.902,-15.625,0.000,0
37201.773,-20.020,-27.344,-22.461,-16.602,0.000,0
37201.777,-21.973,-28.320,-20.020,-22.461,0.000,0
37201.781,-24.414,-27.832,-24.902,-32.715,0.000,0
37201.785,-20.020,-28.809,-24.902,-30.273,0.000,0
37201.789,-25.879,-23.926,-27.344,-21.973,0.000,0
37201.793,-20.508,-17.578,-30.273,-16.113,0.000,0
37201.797,-12.695,-20.508,-20.996,-16.113,0.000,0
37201.801,-19.043,-23.926,-22.949,-19.531,0.000,0
37201.805,-21.973,-27.344,-35.645,-20.508,0.000,0
37201.809,-22.461,-30.762,-31.250,-19.043,0.000,0
37201.812,-25.391,-31.250,-36.621,-13.184,0.000,0
37201.816,-23.438,-29.785,-39.551,-13.184,0.000,0
37201.820,-19.043,-20.020,-29.297,-11.230,0.000,0
37201.824,-16.113,-12.695,-29.785,-7.812,0.000,0
37201.828,-23.926,-18.066,-35.156,-8.789,0.000,2
37201.832,-18.555,-23.438,-31.250,-1.465,0.000,0
37201.836,-14.160,-23.926,-24.902,-8.301,0.000,0
37201.840,-20.020,-18.555,-19.531,-17.090,0.000,0
37201.844,-16.113,-16.113,-23.926,-19.531,0.000,0
37201.848,-11.719,-18.555,-25.391,-19.531,0.000,0
37201.851,-12.207,-16.113,-18.066,-17.578,0.000,0
37201.855,-20.508,-22.949,-17.090,-22.461,0.000,0
37201.859,-23.438,-27.832,-14.160,-28.320,0.000,0
37201.863,-23.926,-25.391,-18.555,-22.949,0.000,0
37201.867,-26.367,-27.344,-26.855,-17.090,0.000,0
37201.871,-28.320,-25.391,-27.344,-20.020,0.000,0
37201.875,-26.855,-27.832,-26.367,-21.973,0.000,0
37201.879,-19.531,-31.738,-18.555,-19.043,0.000,0
37201.883,-19.043,-27.832,-24.414,-21.973,0.000,0
37201.887,-25.391,-31.738,-38.574,-32.227,0.000,0
37201.891,-27.832,-31.250,-38.574,-41.992,0.000,0
37201.894,-30.273,-28.809,-31.738,-39.062,0.000,0
37201.898,-29.785,-31.250,-23.926,-33.691,0.000,0
37201.902,-31.738,-28.809,-29.785,-33.203,0.000,0
37201.906,-30.762,-26.855,-29.297,-27.832,0.000,0
37201.910,-27.344,-27.832,-18.066,-26.855,0.000,0
37201.914,-33.203,-21.484,-20.996,-28.809,0.000,0
37201.918,-34.668,-20.508,-16.602,-26.367,0.000,0
37201.922,-35.156,-24.414,-19.531,-15.625,0.000,0
37201.926,-34.180,-23.438,-25.879,-16.113,0.000,0
37201.930,-29.297,-23.438,-13.184,-18.555,0.000,0
37201.934,-32.227,-24.414,-13.184,-13.184,0.000,0
37201.937,-35.156,-28.809,-16.602,-22.461,0.000,0
37201.941,-28.320,-26.367,-17.090,-19.043,0.000,0
37201.945,-22.949,-17.090,-14.648,-6.836,0.000,0
37201.949,-26.855,-20.020,-27.832,-19.531,0.000,0
37201.953,-24.414,-16.602,-24.414,-27.344,0.000,0
37201.957,-20.020,-19.531,-9.277,-21.973,0.000,0
37201.961,-20.020,-27.344,-20.020,-28.320,0.000,0
37201.965,-20.996,-23.926,-26.855,-33.203,0.000,0
37201.969,-20.020,-21.973,-20.996,-14.648,0.000,0
37201.973,-14.160,-19.531,-13.672,-1.465,0.000,0
37201.976,-20.020,-20.996,-14.648,-8.789,0.000,0
37201.980,-29.297,-23.438,-21.973,-14.648,0.000,0
37201.984,-25.391,-24.902,-26.855,-16.113,0.000,0
37201.988,-23.926,-25.391,-20.996,-9.277,0.000,0
37201.992,-24.414,-28.320,-25.879,-11.230,0.000,0
37201.996,-27.344,-28.809,-31.738,-30.273,0.000,0
37202.000,-36.133,-26.367,-22.949,-41.992,0.000,0
37202.004,-38.086,-27.344,-18.066,-40.039,0.000,0
37202.008,-38.574,-29.785,-26.855,-33.203,0.000,0
37202.012,-32.715,-25.879,-26.367,-26.367,0.000,0
37202.016,-20.020,-20.508,-14.160,-17.090,0.000,0
37202.019,-22.461,-19.043,-13.184,-17.090,0.000,0
37202.023,-27.344,-15.625,-17.578,-14.648,0.000,0
37202.027,-21.484,-18.066,-26.367,-14.648,0.000,0
37202.031,-20.508,-20.508,-27.832,-27.832,0.000,0
37202.035,-30.762,-20.996,-22.461,-33.691,0.000,0
37202.039,-26.367,-21.973,-24.902,-29.785,0.000,0
37202.043,-18.555,-15.137,-25.391,-25.879,0.000,0
37202.047,-19.043,-17.090,-20.996,-13.672,0.000,0
37202.051,-21.484,-19.531,-12.695,-4.395,0.000,0
37202.055,-20.508,-15.137,-12.695,-14.160,0.000,0
37202.059,-22.949,-16.602,-22.949,-19.043,0.000,0
37202.062,-30.273,-19.043,-26.855,-20.508,0.000,0
37202.066,-33.203,-25.879,-29.785,-23.926,0.000,0
37202.070,-28.320,-26.367,-31.738,-14.160,0.000,0
37202.074,-18.555,-18.555,-21.973,-15.137,0.000,0
37202.078,-24.902,-23.438,-20.508,-21.484,0.000,0
37202.082,-35.156,-23.438,-26.855,-21.973,0.000,0
37202.086,-34.180,-20.996,-31.250,-28.320,0.000,0
37202.090,-31.250,-26.855,-36.133,-29.785,0.000,0
37202.094,-24.902,-25.391,-34.668,-18.555,0.000,0
37202.098,-21.973,-22.949,-26.367,-25.391,0.000,0
37202.101,-23.926,-30.762,-35.156,-35.645,0.000,0
37202.105,-23.926,-35.156,-40.527,-38.086,0.000,0
37202.109,-21.484,-24.902,-32.227,-24.902,0.000,0
37202.113,-17.090,-28.320,-29.785,-20.508,0.000,0
37202.117,-14.160,-30.273,-24.414,-21.973,0.000,0
37202.121,-16.602,-27.344,-31.250,-10.742,0.000,0
37202.125,-20.996,-31.250,-39.551,-20.020,0.000,0
37202.129,-10.254,-34.668,-41.016,-27.832,0.000,0
37202.133,-11.230,-33.203,-39.062,-26.367,0.000,0
37202.137,-16.113,-29.785,-29.297,-22.949,0.000,0
37202.141,-14.160,-30.273,-23.926,-20.508,0.000,0
37202.144,-24.414,-26.367,-23.438,-24.902,0.000,0
37202.148,-27.344,-30.273,-30.273,-19.531,0.000,0
37202.152,-19.043,-29.297,-21.484,-22.461,0.000,0
37202.156,-14.648,-22.949,-11.719,-22.949,0.000,0
37202.160,-20.996,-20.508,-20.996,-17.578,0.000,0
37202.164,-24.902,-25.391,-23.926,-24.902,0.000,0
37202.168,-25.391,-27.344,-25.879,-24.414,0.000,0
37202.172,-30.273,-26.367,-31.738,-24.902,0.000,0
37202.176,-29.297,-30.273,-28.809,-35.645,0.000,0
37202.180,-19.043,-21.973,-20.020,-28.809,0.000,0
37202.184,-17.090,-18.555,-18.066,-23.926,0.000,0
37202.187,-24.414,-33.691,-30.273,-24.902,0.000,0
37202.191,-18.555,-28.320,-23.926,-20.508,0.000,0
37202.195,-21.484,-21.973,-9.766,-26.367,0.000,0
37202.199,-23.438,-26.367,-21.484,-23.438,0.000,0
37202.203,-20.020,-25.391,-22.949,-29.785,0.000,0
37202.207,-21.484,-22.949,-16.113,-37.109,0.000,0
37202.211,-17.090,-23.438,-19.043,-31.250,0.000,0
37202.215,-18.555,-27.832,-15.625,-27.344,0.000,0
37202.219,-30.273,-21.484,-16.602,-36.133,0.000,0
37202.223,-29.297,-20.020,-23.926,-35.156,0.000,0
37202.226,-24.902,-23.438,-32.227,-21.484,0.000,0
37202.230,-27.344,-20.996,-36.133,-17.090,0.000,0
37202.234,-30.273,-21.484,-33.203,-34.180,0.000,0
37202.238,-27.344,-20.020,-34.180,-27.832,0.000,0
37202.242,-24.414,-22.949,-34.180,-20.020,0.000,0
37202.246,-24.414,-23.438,-34.180,-23.926,0.000,0
37202.250,-21.484,-19.043,-32.227,-26.367,0.000,0
37202.254,-18.555,-20.508,-24.414,-31.738,0.000,0
37202.258,-20.508,-17.090,-21.973,-21.973,0.000,0
37202.262,-20.508,-14.648,-23.926,-15.625,0.000,0
37202.266,-16.113,-23.438,-30.273,-18.066,0.000,0
37202.269,-17.578,-23.926,-27.832,-17.090,0.000,0
37202.273,-19.043,-17.090,-11.230,-20.508,0.000,0
37202.277,-17.090,-16.113,-12.207,-23.926,0.000,0
37202.281,-20.020,-15.625,-23.926,-24.414,0.000,0
37202.285,-21.973,-18.066,-28.320,-13.672,0.000,0
37202.289,-19.043,-21.484,-31.250,-6.836,0.000,0
37202.293,-19.043,-22.949,-29.297,-19.531,0.000,0
37202.297,-17.090,-22.461,-29.785,-23.438,0.000,0
37202.301,-11.230,-18.555,-30.273,-4.883,0.000,0
37202.305,-11.230,-12.695,-29.297,-9.277,0.000,0
37202.309,-19.531,-10.254,-35.156,-21.973,0.000,0
37202.312,-30.273,-19.043,-36.621,-25.879,0.000,0
37202.316,-29.297,-22.461,-32.715,-23.926,0.000,0
37202.320,-27.344,-10.254,-18.555,-19.531,0.000,0
37202.324,-20.020,-11.230,-24.414,-8.789,0.000,0
37202.328,-4.883,-18.066,-32.715,-5.371,0.000,0
37202.332,-4.395,-12.207,-23.926,-9.766,0.000,0
37202.336,-2.441,-8.789,-21.484,0.000,0.000,0
37202.340,-8.789,-20.020,-32.715,-2.441,0.000,0
37202.344,-18.555,-20.508,-39.551,-17.090,0.000,0
37202.348,-16.602,-14.160,-29.785,-6.348,0.000,0
37202.351,-22.949,-18.066,-22.461,-8.301,0.000,0
37202.355,-30.273,-22.461,-24.414,-19.531,0.000,0
37202.359,-32.715,-22.949,-30.762,-28.320,0.000,0
37202.363,-28.809,-17.090,-21.973,-20.996,0.000,0
37202.367,-27.832,-20.508,-25.879,-20.020,0.000,0
37202.371,-29.785,-26.855,-32.715,-35.645,0.000,0
37202.375,-30.273,-29.785,-29.297,-30.762,0.000,0
37202.379,-29.297,-28.320,-31.250,-21.484,0.000,0
37202.383,-26.367,-25.391,-30.273,-17.090,0.000,0
37202.387,-20.020,-30.273,-24.902,-17.578,0.000,0
37202.391,-17.578,-24.414,-21.973,-24.902,0.000,0
37202.394,-20.508,-13.672,-22.461,-27.832,0.000,0
37202.398,-20.508,-15.625,-20.508,-28.320,0.000,0
37202.402,-17.090,-13.672,-24.414,-11.230,0.000,0
37202.406,-21.484,-12.207,-28.809,-11.719,0.000,0
37202.410,-20.996,-14.648,-18.066,-20.020,0.000,0
37202.414,-17.090,-21.973,-16.113,-21.484,0.000,0
37202.418,-15.625,-27.832,-18.555,-27.344,0.000,0
37202.422,-13.184,-19.531,-11.719,-23.438,0.000,0
37202.426,-12.695,-15.137,-12.207,-14.648,0.000,0
37202.430,-19.531,-21.484,-20.508,-16.602,0.000,0
37202.434,-26.855,-20.508,-23.926,-25.879,0.000,0
37202.437,-22.949,-17.578,-20.020,-16.602,0.000,0
37202.441,-16.602,-19.043,-10.742,-9.277,0.000,0
37202.445,-15.137,-19.531,-10.742,-8.789,0.000,0
37202.449,-17.090,-16.602,-10.742,-1.465,0.000,2
37202.453,-16.602,-15.625,-14.648,-8.301,0.000,0
37202.457,-17.090,-13.184,-27.832,-25.391,0.000,0
37202.461,-20.508,-14.160,-29.297,-35.156,0.000,0
37202.465,-19.531,-20.020,-30.762,-26.367,0.000,0
37202.469,-22.949,-22.461,-29.297,-25.879,0.000,0
37202.473,-20.996,-28.320,-26.855,-28.320,0.000,0
37202.476,-11.230,-24.414,-29.785,-16.113,0.000,0
37202.480,-12.695,-16.113,-23.926,-20.508,0.000,0
37202.484,-24.902,-22.461,-26.367,-32.227,0.000,0
37202.488,-23.438,-20.996,-27.344,-31.250,0.000,0
37202.492,-12.695,-21.484,-24.902,-28.320,0.000,0
37202.496,-19.531,-25.391,-30.273,-26.855,0.000,0
37202.500,-22.461,-29.297,-24.902,-17.090,0.000,0
37202.504,-20.996,-28.809,-28.320,-24.414,0.000,0
37202.508,-32.715,-29.297,-38.574,-45.898,0.000,0
37202.512,-31.738,-27.832,-33.203,-38.574,0.000,0
37202.516,-16.602,-22.949,-24.414,-25.391,0.000,0
37202.519,-19.531,-24.902,-30.762,-20.020,0.000,0
37202.523,-23.438,-29.297,-37.109,-10.254,0.000,0
37202.527,-11.719,-28.809,-26.855,-10.254,0.000,0
37202.531,-17.578,-26.855,-26.367,-30.762,0.000,0
37202.535,-22.949,-24.902,-30.273,-35.156,0.000,0
37202.539,-11.230,-20.996,-20.020,-17.090,0.000,0
37202.543,-14.160,-22.461,-14.648,-14.648,0.000,0
37202.547,-21.973,-21.484,-16.113,-18.555,0.000,0
37202.551,-20.996,-23.926,-20.996,-24.414,0.000,0
37202.555,-11.719,-25.879,-27.832,-18.555,0.000,0
37202.559,0.488,-25.391,-25.391,-8.301,0.000,0
37202.562,-16.113,-30.273,-26.367,-34.180,0.000,0
37202.566,-34.668,-25.391,-19.531,-52.246,0.000,0
37202.570,-32.715,-22.949,-12.207,-46.387,0.000,0
37202.574,-30.273,-26.855,-17.090,-45.898,0.000,0
37202.578,-28.320,-25.391,-30.762,-37.109,0.000,0
37202.582,-29.297,-19.043,-35.645,-25.879,0.000,0
37202.586,-33.691,-21.973,-24.414,-30.762,0.000,0
37202.590,-35.156,-27.344,-28.320,-34.668,0.000,0
37202.594,-30.762,-25.879,-32.715,-20.996,0.000,0
37202.598,-32.227,-23.926,-20.508,-27.832,0.000,0
37202.601,-31.738,-20.020,-18.555,-39.062,0.000,0
37202.605,-29.297,-20.508,-21.484,-35.645,0.000,0
37202.609,-31.250,-16.602,-20.020,-38.086,0.000,0
37202.613,-33.203,-17.578,-27.344,-36.133,0.000,0
37202.617,-33.691,-20.020,-33.203,-33.203,0.000,0
37202.621,-34.668,-21.973,-33.691,-35.645,0.000,0
37202.625,-26.367,-19.531,-23.438,-25.879,0.000,0
37202.629,-23.926,-21.484,-21.484,-20.020,0.000,0
37202.633,-31.250,-31.250,-31.738,-27.832,0.000,0
37202.637,-28.320,-31.250,-34.668,-20.996,0.000,0
37202.641,-27.832,-29.785,-41.992,-16.602,0.000,0
37202.644,-27.832,-28.320,-33.691,-15.625,0.000,0
37202.648,-27.344,-21.484,-17.578,-15.625,0.000,0
37202.652,-30.762,-17.578,-24.902,-20.020,0.000,0
37202.656,-25.391,-22.461,-27.344,-18.066,0.000,0
37202.660,-14.648,-19.531,-18.555,-10.254,0.000,0
37202.664,-12.695,-16.113,-15.137,-5.371,0.000,0
37202.668,-21.484,-26.855,-23.926,-16.602,0.000,0
37202.672,-33.203,-30.762,-31.738,-25.879,0.000,0
37202.676,-35.645,-29.297,-28.809,-31.738,0.000,0
37202.680,-33.203,-30.762,-26.367,-26.855,0.000,0
37202.684,-32.715,-35.645,-31.738,-25.879,0.000,0
37202.687,-32.715,-32.227,-30.273,-28.809,0.000,0
37202.691,-29.297,-20.996,-21.484,-14.160,0.000,0
37202.695,-31.738,-21.973,-32.715,-20.020,0.000,0
37202.699,-40.039,-28.809,-34.668,-32.715,0.000,0
37202.703,-38.574,-23.926,-25.391,-25.391,0.000,0
37202.707,-28.320,-21.484,-23.438,-23.926,0.000,0
37202.711,-31.738,-25.879,-20.996,-27.832,0.000,0
37202.715,-41.504,-26.855,-24.902,-32.715,0.000,0
37202.719,-40.527,-21.484,-25.391,-34.668,0.000,0
37202.723,-39.062,-20.020,-22.461,-30.273,0.000,0
37202.726,-35.156,-24.414,-18.555,-20.020,0.000,0
37202.730,-37.598,-18.555,-22.461,-26.855,0.000,0
37202.734,-31.250,-16.602,-19.531,-35.156,0.000,0
37202.738,-27.832,-20.508,-22.949,-23.438,0.000,0
37202.742,-29.785,-23.926,-34.668,-8.301,0.000,0
37202.746,-32.227,-20.020,-29.785,-20.996,0.000,0
37202.750,-33.203,-26.367,-30.273,-34.180,0.000,0
37202.754,-23.926,-27.344,-36.621,-24.902,0.000,0
37202.758,-22.461,-17.578,-34.180,-24.414,0.000,0
37202.762,-20.508,-16.602,-25.391,-21.484,0.000,0
37202.766,-23.926,-22.461,-20.020,-22.461,0.000,0
37202.769,-27.832,-26.855,-26.855,-26.855,0.000,0
37202.773,-29.785,-22.461,-33.203,-20.996,0.000,0
37202.777,-31.250,-22.949,-38.574,-21.484,0.000,0
37202.781,-17.090,-16.113,-30.762,-14.160,0.000,0
37202.785,-9.766,-13.672,-20.996,-9.277,0.000,0
37202.789,-20.508,-20.508,-29.297,-17.578,0.000,0
37202.793,-20.996,-20.020,-30.762,-13.672,0.000,0
37202.797,-15.137,-19.531,-27.344,-6.836,0.000,0
37202.801,-18.555,-22.461,-25.879,-1.465,0.000,0
37202.805,-26.367,-24.902,-22.949,-10.742,0.000,0
37202.809,-26.855,-24.414,-26.367,-13.672,0.000,0
37202.812,-19.531,-16.602,-21.973,-5.371,0.000,0
37202.816,-24.902,-17.090,-20.020,-8.789,0.000,0
37202.820,-29.785,-27.344,-27.832,-14.160,0.000,0
37202.824,-27.344,-26.367,-24.902,-19.043,0.000,0
37202.828,-26.367,-18.555,-22.461,-14.160,0.000,0
37202.832,-19.043,-18.066,-25.879,-14.648,0.000,0
37202.836,-23.438,-24.414,-22.949,-20.508,0.000,0
37202.840,-26.855,-20.020,-19.531,-9.766,0.000,0
37202.844,-19.043,-13.672,-13.672,-3.418,0.000,0
37202.848,-18.066,-15.625,-16.113,-8.789,0.000,0
37202.851,-22.461,-20.996,-28.320,-15.625,0.000,0
37202.855,-19.531,-18.555,-23.438,-14.160,0.000,0
37202.859,-20.508,-20.996,-26.367,-23.926,0.000,0
37202.863,-24.902,-27.344,-30.762,-33.691,0.000,0
37202.867,-25.391,-26.855,-39.551,-20.020,0.000,0
37202.871,-31.738,-23.438,-45.898,-20.508,0.000,0
37202.875,-24.902,-20.020,-25.879,-24.902,0.000,0
37202.879,-26.367,-20.020,-24.414,-16.113,0.000,0
37202.883,-32.715,-27.344,-27.344,-15.625,0.000,0
37202.887,-23.926,-30.273,-24.414,-20.508,0.000,0
37202.891,-23.438,-30.762,-26.855,-20.020,0.000,0
37202.894,-25.879,-33.203,-25.879,-13.184,0.000,0
37202.898,-33.691,-31.738,-27.832,-23.926,0.000,0
37202.902,-35.645,-28.320,-24.902,-34.180,0.000,0
37202.906,-29.785,-23.926,-21.973,-30.762,0.000,0
37202.910,-31.250,-24.902,-22.949,-27.832,0.000,0
37202.914,-26.367,-28.320,-24.414,-30.762,0.000,0
37202.918,-25.391,-27.344,-25.879,-23.438,0.000,0
37202.922,-26.855,-20.508,-19.531,-24.902,0.000,0
37202.926,-25.391,-17.090,-18.555,-20.020,0.000,0
37202.930,-18.066,-16.113,-24.414,-2.441,0.000,0
37202.934,-7.812,-13.672,-16.602,-1.465,0.000,0
37202.937,-15.137,-23.926,-17.090,-6.348,0.000,0
37202.941,-20.020,-27.832,-20.508,-23.438,0.000,0
37202.945,-16.602,-24.902,-16.602,-15.137,0.000,0
37202.949,-16.602,-28.320,-19.043,-7.812,0.000,0
37202.953,-16.113,-20.020,-19.531,-26.855,0.000,0
37202.957,-16.602,-17.090,-20.020,-19.531,0.000,0
37202.961,-20.020,-18.555,-24.414,-10.742,0.000,0
37202.965,-25.879,-25.391,-31.738,-27.344,0.000,0
37202.969,-26.855,-30.762,-37.109,-27.344,0.000,0
37202.973,-26.855,-26.367,-38.574,-17.578,0.000,0
37202.976,-30.273,-22.461,-30.273,-15.625,0.000,0
37202.980,-33.203,-24.414,-21.973,-24.414,0.000,0
37202.984,-26.855,-22.461,-24.902,-29.297,0.000,0
37202.988,-26.855,-17.578,-26.367,-16.602,0.000,0
37202.992,-23.926,-18.066,-21.973,-10.742,0.000,0
37202.996,-15.625,-14.160,-20.508,-8.789,0.000,0
37203.000,-24.414,-18.555,-24.902,-16.113,0.000,0
37203.004,-29.785,-19.531,-14.648,-28.320,0.000,0
37203.008,-22.949,-13.184,-7.324,-20.508,0.000,0
37203.012,-22.461,-17.578,-13.672,-16.602,0.000,0
37203.016,-27.832,-28.809,-22.949,-19.531,0.000,0
37203.019,-30.762,-34.668,-22.949,-9.277,0.000,0
37203.023,-21.973,-32.715,-17.578,-3.418,0.000,0
37203.027,-19.531,-30.762,-29.785,-21.973,0.000,0
37203.031,-29.785,-25.879,-31.738,-34.180,0.000,0
37203.035,-24.902,-20.020,-25.879,-20.508,0.000,0
37203.039,-16.113,-12.695,-13.184,-16.602,0.000,0
37203.043,-15.625,-14.160,-5.371,-20.508,0.000,0
37203.047,-11.719,-18.555,-17.578,-17.090,0.000,0
37203.051,-16.113,-19.531,-22.461,-18.555,0.000,0
37203.055,-22.461,-20.508,-25.879,-22.461,0.000,0
37203.059,-14.648,-24.414,-27.344,-20.508,0.000,0
